#  Created by Sandify
#  https://sandify.org
#  Version: 0.2.4
#
#  Machine type: Polar
#    Max radius (mm): 280
#    Start point: perimeter
#    End point: none
#  Content type: shape
#  Layer:
#    Shape: Polygon
#    Name: polygon
#    Number of sides: 4
#    Round corners: false
#    Visible: true
#    Initial width: 35
#    Initial height: 35
#    X offset: 0
#    Y offset: 0
#    Rotate (degrees): 0
#    Reverse path: true
#    Number of loops: 7
#    When transforming shape: smear
#    Scale: true
#      Scale (+/-): 58
#      Scale by: constant
#    Spin: false
#    Track: false
#    Fine tuning:
#      Connect to next layer: line
#      Draw portion of path (%): 100
#      Backtrack at end (%): 0
#      Rotate starting point (%): 0
#  Reverse export path: false
#
# File name: 'sandify3'
#

2.35619 1.00000
2.35619 0.99286
2.35619 0.98571
2.35619 0.97857
2.35619 0.97143
2.35619 0.96429
2.35619 0.95714
2.35619 0.95000
2.35619 0.94286
2.35619 0.93571
2.35619 0.92857
2.35619 0.92143
2.35619 0.91429
2.35619 0.90714
2.35619 0.90000
2.35619 0.89286
2.35619 0.88571
2.35619 0.87857
2.35619 0.87143
2.35619 0.86429
2.35619 0.85714
2.35619 0.85000
2.35619 0.84286
2.35619 0.83571
2.35619 0.82857
2.35619 0.82143
2.35619 0.81429
2.35619 0.80714
2.35619 0.80000
2.35619 0.79286
2.35619 0.78571
2.35619 0.77857
2.35619 0.77143
2.35619 0.76429
2.35619 0.75714
2.35619 0.75000
2.35619 0.74286
2.35619 0.73571
2.35619 0.72857
2.35619 0.72143
2.35619 0.71429
2.35619 0.70714
2.35619 0.70000
2.35619 0.69286
2.35619 0.68571
2.35619 0.67857
2.35619 0.67143
2.35619 0.66429
2.35619 0.65714
2.35619 0.65000
2.35619 0.64286
2.35619 0.63571
2.35619 0.62857
2.35619 0.62143
2.35619 0.61437
2.36436 0.60927
2.37266 0.60421
2.38110 0.59918
2.38969 0.59420
2.39842 0.58927
2.40729 0.58438
2.41632 0.57954
2.42549 0.57475
2.43482 0.57000
2.44431 0.56531
2.45395 0.56067
2.46375 0.55608
2.47372 0.55154
2.48385 0.54706
2.49414 0.54264
2.50460 0.53828
2.51524 0.53398
2.52604 0.52973
2.53702 0.52555
2.54817 0.52144
2.55950 0.51739
2.57101 0.51341
2.58269 0.50949
2.59456 0.50565
2.60660 0.50188
2.61882 0.49819
2.63123 0.49457
2.64381 0.49102
2.65658 0.48756
2.66953 0.48417
2.68265 0.48087
2.69596 0.47765
2.70945 0.47452
2.72311 0.47148
2.73694 0.46852
2.75095 0.46566
2.76513 0.46289
2.77948 0.46021
2.79399 0.45763
2.80866 0.45514
2.82350 0.45276
2.83848 0.45047
2.85362 0.44829
2.86890 0.44621
2.88431 0.44424
2.89987 0.44237
2.91555 0.44061
2.93135 0.43896
2.94727 0.43742
2.96329 0.43599
2.97942 0.43468
2.99564 0.43348
3.01195 0.43239
3.02833 0.43142
3.04479 0.43056
3.06130 0.42982
3.07787 0.42920
3.09448 0.42870
3.11113 0.42832
3.12780 0.42805
3.14448 0.42791
3.16118 0.42788
3.17787 0.42797
3.19455 0.42818
3.21120 0.42852
3.22783 0.42896
3.24442 0.42953
3.26096 0.43022
3.27744 0.43102
3.29386 0.43194
3.31020 0.43298
3.32646 0.43413
3.34263 0.43539
3.35870 0.43677
3.37467 0.43826
3.39052 0.43986
3.40626 0.44157
3.42187 0.44339
3.43735 0.44532
3.45269 0.44735
3.46789 0.44948
3.48295 0.45172
3.49785 0.45406
3.51259 0.45650
3.52718 0.45904
3.54160 0.46168
3.55585 0.46441
3.56994 0.46723
3.58385 0.47015
3.59759 0.47315
3.61116 0.47624
3.62454 0.47942
3.63775 0.48269
3.65078 0.48603
3.66363 0.48946
3.67629 0.49297
3.68878 0.49656
3.70108 0.50022
3.71321 0.50396
3.72515 0.50777
3.73691 0.51165
3.74850 0.51560
3.75991 0.51962
3.77114 0.52370
3.78220 0.52785
3.79308 0.53207
3.80379 0.53635
3.81433 0.54068
3.82470 0.54508
3.83490 0.54953
3.84494 0.55404
3.85481 0.55861
3.86453 0.56323
3.87408 0.56790
3.88348 0.57262
3.89273 0.57739
3.90182 0.58221
3.91076 0.58708
3.91955 0.59199
3.92699 0.59625
3.93540 0.59114
3.94396 0.58608
3.95267 0.58105
3.96152 0.57608
3.97053 0.57115
3.97970 0.56627
3.98903 0.56143
3.99851 0.55665
4.00816 0.55191
4.01798 0.54723
4.02796 0.54260
4.03812 0.53803
4.04845 0.53351
4.05895 0.52905
4.06963 0.52465
4.08049 0.52032
4.09153 0.51604
4.10276 0.51183
4.11417 0.50768
4.12576 0.50360
4.13755 0.49959
4.14952 0.49565
4.16168 0.49178
4.17404 0.48799
4.18658 0.48427
4.19932 0.48063
4.21225 0.47707
4.22537 0.47359
4.23869 0.47019
4.25219 0.46688
4.26589 0.46365
4.27977 0.46051
4.29385 0.45746
4.30811 0.45450
4.32255 0.45164
4.33718 0.44887
4.35198 0.44620
4.36696 0.44363
4.38210 0.44116
4.39742 0.43879
4.41290 0.43652
4.42854 0.43436
4.44432 0.43231
4.46026 0.43037
4.47634 0.42854
4.49255 0.42681
4.50888 0.42521
4.52534 0.42371
4.54191 0.42233
4.55858 0.42107
4.57535 0.41993
4.59220 0.41890
4.60913 0.41800
4.62613 0.41721
4.64319 0.41655
4.66030 0.41600
4.67745 0.41558
4.69463 0.41528
4.71183 0.41511
4.72904 0.41506
4.74624 0.41513
4.76344 0.41532
4.78062 0.41563
4.79776 0.41607
4.81486 0.41663
4.83192 0.41731
4.84891 0.41812
4.86583 0.41904
4.88267 0.42008
4.89943 0.42124
4.91608 0.42252
4.93264 0.42392
4.94908 0.42543
4.96540 0.42705
4.98159 0.42879
4.99764 0.43064
5.01356 0.43260
5.02933 0.43466
5.04494 0.43684
5.06040 0.43912
5.07569 0.44150
5.09081 0.44399
5.10577 0.44657
5.12054 0.44926
5.13514 0.45204
5.14956 0.45492
5.16379 0.45789
5.17784 0.46095
5.19170 0.46410
5.20537 0.46734
5.21885 0.47067
5.23213 0.47408
5.24523 0.47757
5.25813 0.48114
5.27084 0.48479
5.28336 0.48852
5.29569 0.49233
5.30782 0.49620
5.31977 0.50015
5.33153 0.50418
5.34310 0.50826
5.35448 0.51242
5.36568 0.51664
5.37670 0.52093
5.38753 0.52527
5.39819 0.52968
5.40866 0.53415
5.41897 0.53867
5.42910 0.54325
5.43906 0.54789
5.44885 0.55258
5.45848 0.55732
5.46794 0.56211
5.47725 0.56695
5.48639 0.57184
5.49538 0.57678
5.49779 0.57813
5.50646 0.57302
5.51529 0.56795
5.52427 0.56293
5.53342 0.55796
5.54273 0.55303
5.55221 0.54815
5.56186 0.54333
5.57168 0.53855
5.58167 0.53383
5.59184 0.52916
5.60219 0.52455
5.61273 0.51999
5.62345 0.51549
5.63435 0.51106
5.64545 0.50668
5.65674 0.50237
5.66822 0.49812
5.67989 0.49394
5.69177 0.48983
5.70384 0.48579
5.71612 0.48182
5.72860 0.47793
5.74128 0.47411
5.75416 0.47037
5.76725 0.46670
5.78054 0.46312
5.79404 0.45962
5.80774 0.45621
5.82165 0.45288
5.83576 0.44965
5.85007 0.44650
5.86458 0.44344
5.87929 0.44049
5.89420 0.43762
5.90929 0.43486
5.92458 0.43219
5.94005 0.42963
5.95571 0.42718
5.97154 0.42482
5.98755 0.42258
6.00372 0.42044
6.02005 0.41842
6.03654 0.41651
6.05317 0.41471
6.06995 0.41303
6.08685 0.41147
6.10388 0.41002
6.12103 0.40870
6.13828 0.40749
6.15563 0.40641
6.17307 0.40545
6.19058 0.40461
6.20816 0.40390
6.22580 0.40332
6.24349 0.40286
6.26120 0.40252
6.27895 0.40232
6.29670 0.40224
6.31446 0.40228
6.33221 0.40245
6.34993 0.40275
6.36763 0.40318
6.38528 0.40373
6.40288 0.40441
6.42041 0.40521
6.43787 0.40614
6.45524 0.40719
6.47252 0.40836
6.48970 0.40965
6.50676 0.41106
6.52370 0.41260
6.54051 0.41425
6.55718 0.41601
6.57371 0.41789
6.59009 0.41988
6.60630 0.42199
6.62235 0.42420
6.63823 0.42653
6.65394 0.42896
6.66946 0.43149
6.68480 0.43413
6.69995 0.43686
6.71491 0.43970
6.72967 0.44263
6.74424 0.44566
6.75860 0.44878
6.77277 0.45200
6.78673 0.45530
6.80048 0.45869
6.81404 0.46216
6.82739 0.46572
6.84053 0.46936
6.85347 0.47308
6.86621 0.47688
6.87874 0.48076
6.89107 0.48471
6.90320 0.48873
6.91513 0.49282
6.92686 0.49698
6.93839 0.50121
6.94973 0.50550
6.96088 0.50986
6.97184 0.51428
6.98261 0.51876
6.99319 0.52330
7.00359 0.52790
7.01381 0.53256
7.02385 0.53726
7.03372 0.54203
7.04341 0.54684
7.05293 0.55170
7.06229 0.55662
7.06858 0.56000
7.07753 0.55489
7.08665 0.54982
7.09594 0.54480
7.10540 0.53983
7.11503 0.53491
7.12484 0.53004
7.13483 0.52522
7.14501 0.52045
7.15537 0.51574
7.16592 0.51109
7.17667 0.50649
7.18761 0.50195
7.19875 0.49748
7.21009 0.49306
7.22163 0.48871
7.23338 0.48443
7.24534 0.48022
7.25751 0.47607
7.26988 0.47200
7.28248 0.46800
7.29528 0.46408
7.30831 0.46023
7.32155 0.45646
7.33501 0.45278
7.34868 0.44918
7.36258 0.44566
7.37669 0.44223
7.39103 0.43889
7.40557 0.43564
7.42034 0.43249
7.43532 0.42943
7.45050 0.42646
7.46590 0.42360
7.48151 0.42084
7.49731 0.41819
7.51331 0.41564
7.52951 0.41319
7.54590 0.41086
7.56247 0.40864
7.57921 0.40653
7.59612 0.40454
7.61320 0.40266
7.63043 0.40090
7.64781 0.39927
7.66533 0.39775
7.68297 0.39636
7.70073 0.39509
7.71861 0.39394
7.73658 0.39293
7.75463 0.39204
7.77277 0.39128
7.79097 0.39065
7.80922 0.39014
7.82751 0.38977
7.84583 0.38953
7.86417 0.38942
7.88251 0.38944
7.90085 0.38959
7.91916 0.38988
7.93744 0.39029
7.95568 0.39083
7.97385 0.39151
7.99197 0.39231
8.01000 0.39324
8.02794 0.39429
8.04578 0.39548
8.06350 0.39679
8.08111 0.39822
8.09858 0.39977
8.11591 0.40145
8.13310 0.40324
8.15012 0.40516
8.16698 0.40719
8.18367 0.40933
8.20018 0.41159
8.21651 0.41396
8.23265 0.41643
8.24859 0.41902
8.26433 0.42171
8.27987 0.42450
8.29520 0.42739
8.31032 0.43039
8.32523 0.43348
8.33993 0.43666
8.35441 0.43994
8.36867 0.44331
8.38271 0.44677
8.39654 0.45031
8.41015 0.45394
8.42354 0.45765
8.43671 0.46144
8.44966 0.46531
8.46240 0.46926
8.47493 0.47329
8.48724 0.47738
8.49934 0.48155
8.51123 0.48578
8.52291 0.49009
8.53439 0.49446
8.54567 0.49889
8.55674 0.50339
8.56762 0.50794
8.57830 0.51256
8.58880 0.51723
8.59910 0.52196
8.60922 0.52674
8.61915 0.53158
8.62890 0.53647
8.63848 0.54141
8.63938 0.54188
8.64863 0.53676
8.65805 0.53170
8.66766 0.52668
8.67745 0.52171
8.68743 0.51679
8.69759 0.51193
8.70796 0.50712
8.71852 0.50236
8.72927 0.49766
8.74024 0.49302
8.75141 0.48844
8.76279 0.48393
8.77438 0.47947
8.78619 0.47508
8.79822 0.47076
8.81047 0.46651
8.82294 0.46233
8.83564 0.45823
8.84856 0.45419
8.86172 0.45024
8.87510 0.44637
8.88872 0.44257
8.90257 0.43886
8.91665 0.43524
8.93097 0.43170
8.94552 0.42825
8.96030 0.42490
8.97532 0.42164
8.99056 0.41848
9.00604 0.41541
9.02174 0.41245
9.03766 0.40959
9.05381 0.40683
9.07017 0.40418
9.08674 0.40164
9.10351 0.39922
9.12049 0.39690
9.13766 0.39470
9.15502 0.39263
9.17256 0.39066
9.19027 0.38883
9.20814 0.38711
9.22617 0.38552
9.24434 0.38405
9.26264 0.38272
9.28106 0.38151
9.29960 0.38043
9.31823 0.37948
9.33695 0.37867
9.35574 0.37799
9.37460 0.37744
9.39350 0.37703
9.41244 0.37675
9.43140 0.37661
9.45037 0.37661
9.46933 0.37673
9.48827 0.37700
9.50718 0.37740
9.52604 0.37793
9.54484 0.37860
9.56356 0.37940
9.58221 0.38034
9.60075 0.38140
9.61919 0.38260
9.63750 0.38392
9.65568 0.38537
9.67372 0.38695
9.69161 0.38866
9.70933 0.39048
9.72689 0.39243
9.74427 0.39450
9.76146 0.39669
9.77845 0.39899
9.79525 0.40141
9.81184 0.40393
9.82822 0.40657
9.84438 0.40932
9.86033 0.41217
9.87605 0.41512
9.89155 0.41818
9.90681 0.42133
9.92185 0.42458
9.93666 0.42793
9.95123 0.43137
9.96557 0.43490
9.97967 0.43851
9.99355 0.44221
10.00719 0.44600
10.02059 0.44987
10.03377 0.45381
10.04672 0.45784
10.05943 0.46194
10.07193 0.46611
10.08420 0.47036
10.09625 0.47467
10.10808 0.47905
10.11969 0.48350
10.13109 0.48801
10.14228 0.49258
10.15326 0.49722
10.16404 0.50191
10.17462 0.50666
10.18500 0.51147
10.19519 0.51633
10.20518 0.52124
10.21018 0.52375
10.21974 0.51863
10.22950 0.51357
10.23945 0.50855
10.24959 0.50358
10.25994 0.49867
10.27049 0.49381
10.28125 0.48901
10.29222 0.48427
10.30341 0.47958
10.31482 0.47496
10.32645 0.47040
10.33831 0.46590
10.35039 0.46147
10.36271 0.45711
10.37526 0.45282
10.38805 0.44861
10.40109 0.44446
10.41436 0.44040
10.42788 0.43641
10.44165 0.43251
10.45566 0.42868
10.46993 0.42495
10.48444 0.42130
10.49921 0.41774
10.51422 0.41428
10.52948 0.41091
10.54500 0.40764
10.56076 0.40446
10.57676 0.40139
10.59301 0.39842
10.60950 0.39556
10.62622 0.39281
10.64318 0.39017
10.66036 0.38765
10.67776 0.38524
10.69537 0.38295
10.71319 0.38078
10.73121 0.37873
10.74942 0.37680
10.76781 0.37500
10.78637 0.37333
10.80509 0.37179
10.82396 0.37038
10.84297 0.36910
10.86210 0.36796
10.88134 0.36695
10.90069 0.36608
10.92012 0.36535
10.93962 0.36476
10.95917 0.36430
10.97877 0.36399
10.99839 0.36381
11.01803 0.36377
11.03766 0.36388
11.05727 0.36412
11.07685 0.36451
11.09638 0.36503
11.11584 0.36570
11.13523 0.36650
11.15453 0.36743
11.17372 0.36851
11.19279 0.36972
11.21173 0.37106
11.23053 0.37254
11.24917 0.37414
11.26765 0.37587
11.28595 0.37774
11.30407 0.37972
11.32199 0.38183
11.33971 0.38406
11.35722 0.38641
11.37451 0.38888
11.39158 0.39146
11.40842 0.39416
11.42503 0.39696
11.44140 0.39988
11.45753 0.40289
11.47341 0.40602
11.48905 0.40924
11.50444 0.41256
11.51958 0.41598
11.53447 0.41949
11.54911 0.42309
11.56350 0.42678
11.57764 0.43056
11.59154 0.43442
11.60518 0.43837
11.61858 0.44240
11.63173 0.44650
11.64465 0.45068
11.65732 0.45493
11.66976 0.45926
11.68196 0.46365
11.69393 0.46811
11.70568 0.47264
11.71720 0.47723
11.72849 0.48189
11.73958 0.48660
11.75044 0.49138
11.76110 0.49621
11.77155 0.50109
11.78097 0.50563
11.79088 0.50051
11.80099 0.49544
11.81130 0.49043
11.82183 0.48546
11.83258 0.48056
11.84354 0.47571
11.85474 0.47091
11.86615 0.46618
11.87781 0.46151
11.88969 0.45690
11.90182 0.45236
11.91420 0.44789
11.92682 0.44349
11.93969 0.43916
11.95281 0.43490
11.96620 0.43072
11.97984 0.42662
11.99374 0.42260
12.00791 0.41866
12.02235 0.41481
12.03705 0.41105
12.05202 0.40737
12.06726 0.40379
12.08277 0.40031
12.09855 0.39692
12.11459 0.39364
12.13090 0.39045
12.14748 0.38738
12.16431 0.38441
12.18140 0.38155
12.19875 0.37880
12.21634 0.37617
12.23418 0.37366
12.25225 0.37127
12.27055 0.36900
12.28906 0.36685
12.30780 0.36484
12.32673 0.36295
12.34585 0.36120
12.36515 0.35957
12.38462 0.35809
12.40425 0.35674
12.42401 0.35552
12.44391 0.35445
12.46391 0.35352
12.48402 0.35273
12.50420 0.35209
12.52446 0.35158
12.54476 0.35123
12.56509 0.35101
12.58544 0.35095
12.60579 0.35103
12.62612 0.35125
12.64642 0.35162
12.66667 0.35213
12.68685 0.35279
12.70695 0.35359
12.72695 0.35453
12.74683 0.35562
12.76658 0.35684
12.78620 0.35820
12.80565 0.35970
12.82494 0.36133
12.84405 0.36310
12.86297 0.36500
12.88168 0.36702
12.90018 0.36918
12.91846 0.37146
12.93652 0.37386
12.95433 0.37638
12.97190 0.37902
12.98923 0.38177
13.00630 0.38464
13.02311 0.38762
13.03967 0.39071
13.05596 0.39390
13.07198 0.39719
13.08774 0.40059
13.10322 0.40408
13.11844 0.40767
13.13339 0.41135
13.14807 0.41512
13.16248 0.41898
13.17663 0.42292
13.19052 0.42695
13.20414 0.43106
13.21750 0.43524
13.23060 0.43950
13.24345 0.44384
13.25605 0.44825
13.26841 0.45273
13.28052 0.45727
13.29239 0.46188
13.30402 0.46656
13.31542 0.47130
13.32659 0.47609
13.33754 0.48095
13.34827 0.48586
13.35177 0.48750
13.36204 0.48238
13.37253 0.47731
13.38324 0.47230
13.39419 0.46734
13.40536 0.46244
13.41677 0.45759
13.42843 0.45281
13.44033 0.44809
13.45249 0.44344
13.46490 0.43885
13.47757 0.43433
13.49051 0.42988
13.50371 0.42551
13.51719 0.42121
13.53094 0.41699
13.54497 0.41285
13.55928 0.40880
13.57387 0.40482
13.58875 0.40094
13.60392 0.39715
13.61938 0.39345
13.63513 0.38984
13.65116 0.38634
13.66749 0.38293
13.68410 0.37963
13.70100 0.37644
13.71819 0.37336
13.73565 0.37038
13.75340 0.36753
13.77141 0.36479
13.78969 0.36217
13.80824 0.35967
13.82703 0.35730
13.84607 0.35505
13.86535 0.35294
13.88485 0.35096
13.90456 0.34911
13.92447 0.34740
13.94458 0.34583
13.96486 0.34440
13.98530 0.34312
14.00588 0.34198
14.02659 0.34098
14.04742 0.34013
14.06834 0.33943
14.08934 0.33888
14.11040 0.33848
14.13149 0.33823
14.15261 0.33813
14.17374 0.33818
14.19484 0.33838
14.21592 0.33873
14.23694 0.33923
14.25789 0.33988
14.27875 0.34068
14.29950 0.34163
14.32013 0.34273
14.34062 0.34396
14.36095 0.34535
14.38111 0.34687
14.40109 0.34853
14.42087 0.35033
14.44044 0.35227
14.45979 0.35434
14.47891 0.35654
14.49779 0.35887
14.51642 0.36133
14.53478 0.36391
14.55289 0.36661
14.57072 0.36943
14.58828 0.37236
14.60556 0.37541
14.62255 0.37857
14.63926 0.38183
14.65568 0.38520
14.67182 0.38868
14.68766 0.39225
14.70321 0.39592
14.71847 0.39968
14.73345 0.40353
14.74814 0.40747
14.76254 0.41150
14.77667 0.41562
14.79051 0.41981
14.80407 0.42408
14.81737 0.42843
14.83039 0.43285
14.84315 0.43735
14.85565 0.44191
14.86789 0.44655
14.87987 0.45125
14.89161 0.45601
14.90310 0.46083
14.91436 0.46571
14.92257 0.46938
14.93323 0.46425
14.94413 0.45919
14.95527 0.45417
14.96666 0.44922
14.97830 0.44432
14.99020 0.43949
15.00236 0.43472
15.01479 0.43001
15.02750 0.42537
15.04048 0.42081
15.05374 0.41631
15.06729 0.41189
15.08113 0.40755
15.09527 0.40329
15.10971 0.39911
15.12445 0.39501
15.13949 0.39100
15.15485 0.38709
15.17051 0.38326
15.18648 0.37953
15.20277 0.37590
15.21937 0.37238
15.23628 0.36895
15.25351 0.36564
15.27104 0.36243
15.28889 0.35934
15.30703 0.35636
15.32548 0.35351
15.34422 0.35077
15.36324 0.34816
15.38255 0.34568
15.40213 0.34333
15.42197 0.34111
15.44207 0.33903
15.46240 0.33709
15.48296 0.33529
15.50373 0.33363
15.52470 0.33212
15.54586 0.33075
15.56718 0.32954
15.58864 0.32847
15.61024 0.32756
15.63195 0.32680
15.65375 0.32619
15.67562 0.32574
15.69754 0.32545
15.71949 0.32531
15.74145 0.32533
15.76339 0.32551
15.78530 0.32584
15.80715 0.32633
15.82893 0.32698
15.85061 0.32778
15.87218 0.32873
15.89361 0.32983
15.91489 0.33109
15.93600 0.33249
15.95692 0.33404
15.97764 0.33574
15.99814 0.33758
16.01841 0.33955
16.03844 0.34167
16.05822 0.34392
16.07773 0.34631
16.09697 0.34882
16.11592 0.35146
16.13458 0.35423
16.15295 0.35712
16.17102 0.36012
16.18879 0.36324
16.20624 0.36648
16.22339 0.36982
16.24022 0.37327
16.25674 0.37683
16.27295 0.38048
16.28884 0.38423
16.30442 0.38808
16.31970 0.39202
16.33466 0.39605
16.34932 0.40017
16.36368 0.40437
16.37775 0.40866
16.39151 0.41302
16.40499 0.41746
16.41818 0.42197
16.43109 0.42656
16.44372 0.43121
16.45608 0.43593
16.46818 0.44072
16.48001 0.44557
16.49159 0.45048
16.49336 0.45125
16.50445 0.44612
16.51579 0.44105
16.52740 0.43604
16.53927 0.43109
16.55142 0.42620
16.56385 0.42138
16.57656 0.41662
16.58957 0.41193
16.60287 0.40731
16.61648 0.40277
16.63039 0.39830
16.64462 0.39391
16.65916 0.38960
16.67403 0.38538
16.68922 0.38124
16.70474 0.37719
16.72060 0.37324
16.73679 0.36938
16.75331 0.36562
16.77018 0.36197
16.78738 0.35841
16.80493 0.35497
16.82281 0.35164
16.84103 0.34842
16.85958 0.34532
16.87846 0.34234
16.89767 0.33948
16.91719 0.33676
16.93703 0.33416
16.95717 0.33170
16.97760 0.32937
16.99831 0.32718
17.01930 0.32513
17.04054 0.32323
17.06202 0.32148
17.08372 0.31988
17.10564 0.31843
17.12774 0.31713
17.15002 0.31599
17.17244 0.31501
17.19500 0.31418
17.21766 0.31352
17.24040 0.31302
17.26321 0.31268
17.28605 0.31250
17.30891 0.31249
17.33176 0.31264
17.35457 0.31295
17.37733 0.31343
17.40000 0.31407
17.42258 0.31487
17.44502 0.31583
17.46732 0.31694
17.48945 0.31821
17.51140 0.31964
17.53314 0.32122
17.55466 0.32295
17.57593 0.32483
17.59696 0.32685
17.61771 0.32902
17.63819 0.33133
17.65837 0.33377
17.67826 0.33635
17.69783 0.33905
17.71709 0.34189
17.73602 0.34485
17.75462 0.34793
17.77289 0.35113
17.79083 0.35445
17.80842 0.35787
17.82568 0.36141
17.84260 0.36505
17.85918 0.36879
17.87542 0.37264
17.89133 0.37657
17.90690 0.38061
17.92214 0.38473
17.93706 0.38894
17.95165 0.39324
17.96593 0.39761
17.97989 0.40207
17.99355 0.40660
18.00689 0.41121
18.01995 0.41589
18.03271 0.42063
18.04518 0.42545
18.05737 0.43033
18.06416 0.43312
18.07570 0.42799
18.08753 0.42292
18.09964 0.41791
18.11204 0.41297
18.12474 0.40808
18.13775 0.40327
18.15107 0.39852
18.16470 0.39385
18.17867 0.38925
18.19296 0.38473
18.20759 0.38030
18.22256 0.37594
18.23788 0.37167
18.25355 0.36749
18.26958 0.36340
18.28597 0.35941
18.30272 0.35551
18.31984 0.35172
18.33732 0.34803
18.35518 0.34446
18.37340 0.34099
18.39199 0.33764
18.41095 0.33441
18.43027 0.33130
18.44995 0.32832
18.46998 0.32546
18.49036 0.32274
18.51107 0.32016
18.53212 0.31771
18.55348 0.31541
18.57514 0.31325
18.59710 0.31125
18.61933 0.30939
18.64181 0.30769
18.66453 0.30615
18.68748 0.30477
18.71062 0.30354
18.73393 0.30249
18.75739 0.30159
18.78098 0.30087
18.80467 0.30031
18.82844 0.29992
18.85225 0.29970
18.87609 0.29966
18.89992 0.29978
18.92371 0.30007
18.94745 0.30053
18.97110 0.30116
18.99464 0.30196
19.01804 0.30292
19.04128 0.30405
19.06434 0.30535
19.08719 0.30680
19.10981 0.30841
19.13219 0.31018
19.15430 0.31210
19.17613 0.31417
19.19766 0.31639
19.21889 0.31876
19.23979 0.32126
19.26036 0.32391
19.28059 0.32668
19.30047 0.32959
19.31999 0.33263
19.33916 0.33579
19.35796 0.33908
19.37639 0.34248
19.39445 0.34599
19.41215 0.34962
19.42947 0.35335
19.44643 0.35719
19.46303 0.36113
19.47926 0.36516
19.49513 0.36929
19.51065 0.37351
19.52582 0.37782
19.54064 0.38221
19.55512 0.38669
19.56927 0.39124
19.58309 0.39587
19.59659 0.40057
19.60977 0.40535
19.62264 0.41019
19.63495 0.41500
19.64700 0.40987
19.65935 0.40480
19.67201 0.39979
19.68499 0.39485
19.69829 0.38997
19.71193 0.38517
19.72592 0.38044
19.74025 0.37578
19.75493 0.37121
19.76998 0.36672
19.78541 0.36231
19.80120 0.35799
19.81738 0.35376
19.83394 0.34963
19.85090 0.34559
19.86825 0.34166
19.88600 0.33783
19.90416 0.33411
19.92271 0.33051
19.94167 0.32702
19.96103 0.32365
19.98078 0.32040
20.00094 0.31728
20.02149 0.31430
20.04242 0.31144
20.06373 0.30873
20.08540 0.30616
20.10744 0.30373
20.12981 0.30146
20.15252 0.29934
20.17554 0.29737
20.19885 0.29557
20.22243 0.29393
20.24627 0.29245
20.27034 0.29114
20.29460 0.29000
20.31905 0.28903
20.34364 0.28824
20.36836 0.28762
20.39316 0.28718
20.41803 0.28691
20.44293 0.28683
20.46783 0.28692
20.49269 0.28719
20.51750 0.28763
20.54221 0.28825
20.56680 0.28905
20.59125 0.29002
20.61551 0.29116
20.63957 0.29248
20.66340 0.29396
20.68698 0.29560
20.71029 0.29741
20.73330 0.29938
20.75600 0.30151
20.77837 0.30378
20.80039 0.30621
20.82206 0.30878
20.84337 0.31150
20.86429 0.31435
20.88483 0.31734
20.90497 0.32047
20.92472 0.32371
20.94408 0.32709
20.96302 0.33058
20.98157 0.33419
20.99971 0.33791
21.01746 0.34174
21.03480 0.34568
21.05175 0.34971
21.06831 0.35385
21.08448 0.35808
21.10026 0.36240
21.11568 0.36681
21.13072 0.37130
21.14540 0.37588
21.15973 0.38053
21.17370 0.38527
21.18733 0.39007
21.20063 0.39495
21.20575 0.39687
21.21834 0.39174
21.23126 0.38666
21.24452 0.38166
21.25814 0.37672
21.27211 0.37186
21.28645 0.36706
21.30116 0.36235
21.31626 0.35772
21.33175 0.35317
21.34765 0.34870
21.36395 0.34433
21.38066 0.34005
21.39780 0.33587
21.41536 0.33179
21.43336 0.32782
21.45179 0.32395
21.47066 0.32020
21.48997 0.31656
21.50972 0.31304
21.52991 0.30965
21.55054 0.30639
21.57160 0.30326
21.59310 0.30027
21.61502 0.29742
21.63735 0.29472
21.66008 0.29216
21.68320 0.28976
21.70669 0.28751
21.73054 0.28543
21.75473 0.28351
21.77923 0.28176
21.80403 0.28018
21.82909 0.27878
21.85438 0.27755
21.87989 0.27650
21.90557 0.27563
21.93140 0.27495
21.95734 0.27445
21.98335 0.27413
22.00941 0.27400
22.03548 0.27406
22.06152 0.27430
22.08749 0.27473
22.11336 0.27534
22.13911 0.27614
22.16469 0.27712
22.19007 0.27828
22.21522 0.27961
22.24012 0.28113
22.26474 0.28281
22.28906 0.28466
22.31304 0.28668
22.33668 0.28886
22.35995 0.29120
22.38283 0.29370
22.40532 0.29634
22.42740 0.29914
22.44906 0.30208
22.47029 0.30515
22.49109 0.30836
22.51146 0.31170
22.53138 0.31517
22.55086 0.31876
22.56990 0.32247
22.58851 0.32629
22.60667 0.33023
22.62440 0.33427
22.64171 0.33841
22.65858 0.34265
22.67505 0.34698
22.69110 0.35141
22.70675 0.35593
22.72200 0.36053
22.73686 0.36521
22.75135 0.36997
22.76546 0.37481
22.77655 0.37875
22.78973 0.37361
22.80328 0.36854
22.81720 0.36353
22.83152 0.35860
22.84622 0.35374
22.86133 0.34897
22.87686 0.34427
22.89282 0.33966
22.90921 0.33514
22.92604 0.33071
22.94332 0.32638
22.96107 0.32214
22.97928 0.31802
22.99796 0.31399
23.01712 0.31009
23.03677 0.30629
23.05689 0.30262
23.07751 0.29908
23.09860 0.29567
23.12019 0.29239
23.14225 0.28924
23.16478 0.28625
23.18778 0.28340
23.21123 0.28070
23.23513 0.27816
23.25945 0.27579
23.28417 0.27358
23.30929 0.27154
23.33477 0.26967
23.36059 0.26798
23.38671 0.26647
23.41312 0.26515
23.43977 0.26401
23.46664 0.26306
23.49368 0.26230
23.52085 0.26174
23.54813 0.26137
23.57546 0.26119
23.60280 0.26121
23.63013 0.26142
23.65738 0.26183
23.68454 0.26243
23.71155 0.26323
23.73837 0.26422
23.76498 0.26539
23.79133 0.26675
23.81740 0.26830
23.84316 0.27002
23.86857 0.27192
23.89361 0.27400
23.91826 0.27624
23.94250 0.27865
23.96630 0.28122
23.98967 0.28394
24.01258 0.28682
24.03502 0.28985
24.05699 0.29302
24.07847 0.29632
24.09948 0.29976
24.12000 0.30333
24.14003 0.30703
24.15958 0.31084
24.17864 0.31477
24.19723 0.31881
24.21535 0.32296
24.23301 0.32722
24.25020 0.33157
24.26695 0.33602
24.28325 0.34056
24.29912 0.34518
24.31457 0.34990
24.32960 0.35469
24.34423 0.35956
24.34734 0.36062
24.36118 0.35548
24.37542 0.35040
24.39008 0.34540
24.40516 0.34048
24.42069 0.33563
24.43666 0.33087
24.45310 0.32619
24.47001 0.32161
24.48740 0.31712
24.50529 0.31273
24.52368 0.30844
24.54259 0.30425
24.56201 0.30018
24.58196 0.29623
24.60244 0.29240
24.62346 0.28869
24.64501 0.28512
24.66710 0.28168
24.68973 0.27838
24.71288 0.27522
24.73656 0.27222
24.76075 0.26937
24.78545 0.26669
24.81063 0.26417
24.83628 0.26182
24.86238 0.25965
24.88890 0.25765
24.91581 0.25584
24.94309 0.25422
24.97069 0.25279
24.99859 0.25155
25.02674 0.25052
25.05511 0.24968
25.08364 0.24904
25.11229 0.24861
25.14102 0.24838
25.16978 0.24836
25.19853 0.24854
25.22720 0.24893
25.25576 0.24952
25.28417 0.25032
25.31237 0.25131
25.34033 0.25251
25.36800 0.25390
25.39535 0.25548
25.42234 0.25725
25.44895 0.25920
25.47514 0.26134
25.50089 0.26365
25.52617 0.26613
25.55098 0.26878
25.57528 0.27159
25.59907 0.27456
25.62234 0.27768
25.64508 0.28095
25.66728 0.28436
25.68895 0.28791
25.71008 0.29159
25.73068 0.29539
25.75074 0.29932
25.77028 0.30337
25.78930 0.30752
25.80780 0.31179
25.82579 0.31616
25.84329 0.32063
25.86031 0.32519
25.87685 0.32985
25.89292 0.33460
25.90854 0.33942
25.91814 0.34250
25.93270 0.33735
25.94771 0.33228
25.96318 0.32728
25.97912 0.32236
25.99556 0.31752
26.01250 0.31278
26.02996 0.30812
26.04794 0.30357
26.06647 0.29911
26.08555 0.29476
26.10520 0.29052
26.12542 0.28640
26.14622 0.28240
26.16761 0.27852
26.18959 0.27477
26.21217 0.27116
26.23535 0.26769
26.25912 0.26437
26.28349 0.26121
26.30843 0.25820
26.33395 0.25535
26.36003 0.25268
26.38664 0.25018
26.41377 0.24786
26.44140 0.24573
26.46948 0.24379
26.49800 0.24204
26.52690 0.24049
26.55615 0.23915
26.58571 0.23801
26.61553 0.23709
26.64555 0.23637
26.67573 0.23587
26.70601 0.23559
26.73633 0.23552
26.76664 0.23567
26.79689 0.23603
26.82702 0.23661
26.85697 0.23741
26.88670 0.23841
26.91615 0.23962
26.94528 0.24104
26.97404 0.24266
27.00240 0.24448
27.03032 0.24650
27.05776 0.24870
27.08471 0.25108
27.11112 0.25365
27.13699 0.25639
27.16230 0.25929
27.18703 0.26236
27.21118 0.26559
27.23473 0.26896
27.25769 0.27248
27.28005 0.27614
27.30181 0.27994
27.32298 0.28386
27.34357 0.28791
27.36357 0.29208
27.38301 0.29636
27.40188 0.30075
27.42021 0.30524
27.43800 0.30984
27.45526 0.31452
27.47201 0.31930
27.48827 0.32417
27.48894 0.32438
27.50430 0.31922
27.52016 0.31414
27.53654 0.30914
27.55345 0.30423
27.57091 0.29941
27.58894 0.29468
27.60755 0.29006
27.62676 0.28553
27.64658 0.28112
27.66702 0.27681
27.68810 0.27263
27.70982 0.26857
27.73220 0.26465
27.75524 0.26086
27.77895 0.25721
27.80333 0.25371
27.82837 0.25037
27.85408 0.24718
27.88043 0.24417
27.90743 0.24133
27.93505 0.23866
27.96327 0.23619
27.99207 0.23390
28.02141 0.23182
28.05125 0.22993
28.08156 0.22826
28.11229 0.22680
28.14339 0.22555
28.17480 0.22453
28.20647 0.22373
28.23834 0.22315
28.27034 0.22280
28.30240 0.22268
28.33447 0.22279
28.36647 0.22313
28.39834 0.22370
28.43002 0.22449
28.46144 0.22550
28.49256 0.22674
28.52330 0.22819
28.55363 0.22986
28.58350 0.23173
28.61286 0.23381
28.64168 0.23609
28.66992 0.23856
28.69757 0.24121
28.72459 0.24404
28.75098 0.24705
28.77671 0.25023
28.80178 0.25357
28.82619 0.25706
28.84992 0.26070
28.87299 0.26449
28.89540 0.26841
28.91715 0.27246
28.93826 0.27664
28.95872 0.28093
28.97857 0.28535
28.99780 0.28987
29.01643 0.29449
29.03449 0.29921
29.05197 0.30403
29.05973 0.30625
29.07599 0.30109
29.09281 0.29601
29.11021 0.29101
29.12821 0.28611
29.14684 0.28130
29.16610 0.27660
29.18603 0.27200
29.20663 0.26751
29.22793 0.26314
29.24993 0.25889
29.27266 0.25478
29.29612 0.25079
29.32032 0.24696
29.34528 0.24327
29.37098 0.23973
29.39744 0.23636
29.42464 0.23316
29.45258 0.23014
29.48124 0.22730
29.51060 0.22465
29.54063 0.22220
29.57130 0.21996
29.60258 0.21792
29.63441 0.21611
29.66675 0.21451
29.69954 0.21315
29.73272 0.21201
29.76621 0.21111
29.79996 0.21045
29.83388 0.21003
29.86789 0.20986
29.90192 0.20992
29.93589 0.21023
29.96972 0.21078
30.00334 0.21157
30.03667 0.21260
30.06964 0.21386
30.10220 0.21535
30.13427 0.21707
30.16580 0.21901
30.19675 0.22116
30.22708 0.22351
30.25675 0.22607
30.28573 0.22883
30.31400 0.23177
30.34153 0.23489
30.36833 0.23818
30.39438 0.24164
30.41967 0.24526
30.44421 0.24903
30.46801 0.25295
30.49107 0.25701
30.51340 0.26120
30.53501 0.26551
30.55593 0.26995
30.57616 0.27450
30.59572 0.27916
30.61463 0.28392
30.63053 0.28813
30.64779 0.28296
30.66569 0.27787
30.68425 0.27288
30.70349 0.26799
30.72345 0.26320
30.74413 0.25852
30.76557 0.25395
30.78778 0.24951
30.81078 0.24519
30.83460 0.24101
30.85924 0.23696
30.88472 0.23307
30.91106 0.22933
30.93824 0.22576
30.96628 0.22236
30.99516 0.21914
31.02488 0.21611
31.05542 0.21327
31.08675 0.21064
31.11884 0.20822
31.15165 0.20602
31.18513 0.20404
31.21923 0.20230
31.25388 0.20080
31.28901 0.19954
31.32453 0.19854
31.36038 0.19778
31.39645 0.19728
31.43266 0.19704
31.46892 0.19706
31.50511 0.19733
31.54116 0.19787
31.57697 0.19865
31.61245 0.19970
31.64752 0.20099
31.68210 0.20252
31.71612 0.20429
31.74952 0.20630
31.78224 0.20853
31.81423 0.21098
31.84546 0.21364
31.87589 0.21650
31.90550 0.21956
31.93427 0.22280
31.96219 0.22622
31.98926 0.22982
32.01548 0.23358
32.04085 0.23749
32.06539 0.24155
32.08909 0.24575
32.11199 0.25009
32.13410 0.25455
32.15544 0.25913
32.17602 0.26383
32.19588 0.26863
32.20132 0.27000
32.21972 0.26482
32.23885 0.25974
32.25874 0.25475
32.27940 0.24987
32.30089 0.24510
32.32321 0.24044
32.34641 0.23592
32.37049 0.23152
32.39550 0.22726
32.42144 0.22315
32.44834 0.21920
32.47621 0.21541
32.50505 0.21179
32.53486 0.20836
32.56565 0.20512
32.59739 0.20207
32.63007 0.19924
32.66366 0.19663
32.69811 0.19424
32.73338 0.19209
32.76939 0.19019
32.80609 0.18853
32.84339 0.18714
32.88119 0.18600
32.91940 0.18514
32.95792 0.18455
32.99662 0.18423
33.03540 0.18420
33.07413 0.18443
33.11271 0.18495
33.15101 0.18573
33.18894 0.18679
33.22639 0.18811
33.26326 0.18970
33.29948 0.19153
33.33496 0.19362
33.36965 0.19594
33.40348 0.19849
33.43642 0.20126
33.46843 0.20424
33.49948 0.20743
33.52957 0.21081
33.55869 0.21438
33.58682 0.21812
33.61399 0.22203
33.64020 0.22610
33.66547 0.23031
33.68981 0.23467
33.71325 0.23916
33.73582 0.24378
33.75753 0.24852
33.77212 0.25188
33.79182 0.24669
33.81235 0.24160
33.83376 0.23662
33.85608 0.23175
33.87935 0.22700
33.90359 0.22238
33.92885 0.21790
33.95516 0.21356
33.98253 0.20937
34.01100 0.20535
34.04058 0.20150
34.07128 0.19784
34.10312 0.19436
34.13607 0.19109
34.17014 0.18804
34.20528 0.18521
34.24148 0.18262
34.27866 0.18027
34.31677 0.17818
34.35573 0.17635
34.39544 0.17480
34.43580 0.17353
34.47668 0.17254
34.51797 0.17184
34.55952 0.17144
34.60120 0.17134
34.64285 0.17153
34.68434 0.17202
34.72552 0.17281
34.76626 0.17388
34.80643 0.17524
34.84592 0.17688
34.88463 0.17879
34.92246 0.18096
34.95935 0.18339
34.99523 0.18605
35.03005 0.18895
35.06377 0.19207
35.09639 0.19540
35.12788 0.19894
35.15824 0.20266
35.18748 0.20656
35.21561 0.21064
35.24265 0.21487
35.26863 0.21925
35.29358 0.22378
35.31752 0.22844
35.34049 0.23323
35.34292 0.23375
35.36411 0.22855
35.38628 0.22346
35.40947 0.21848
35.43373 0.21363
35.45909 0.20891
35.48562 0.20433
35.51334 0.19989
35.54230 0.19562
35.57252 0.19152
35.60403 0.18761
35.63685 0.18388
35.67099 0.18037
35.70644 0.17707
35.74320 0.17400
35.78121 0.17118
35.82045 0.16861
35.86083 0.16631
35.90228 0.16428
35.94469 0.16255
35.98793 0.16111
36.03186 0.15999
36.07633 0.15917
36.12117 0.15867
36.16620 0.15849
36.21125 0.15864
36.25612 0.15910
36.30064 0.15988
36.34464 0.16098
36.38796 0.16238
36.43046 0.16408
36.47201 0.16608
36.51252 0.16835
36.55188 0.17089
36.59003 0.17369
36.62692 0.17673
36.66251 0.18000
36.69679 0.18350
36.72976 0.18720
36.76141 0.19109
36.79177 0.19518
36.82086 0.19943
36.84871 0.20384
36.87536 0.20841
36.90085 0.21312
36.91371 0.21563
36.93664 0.21042
36.96073 0.20532
36.98602 0.20035
37.01258 0.19551
37.04047 0.19082
37.06974 0.18629
37.10044 0.18192
37.13262 0.17773
37.16632 0.17373
37.20156 0.16995
37.23836 0.16638
37.27672 0.16304
37.31661 0.15996
37.35801 0.15714
37.40085 0.15460
37.44503 0.15235
37.49044 0.15041
37.53694 0.14879
37.58436 0.14749
37.63251 0.14653
37.68119 0.14592
37.73015 0.14565
37.77918 0.14574
37.82803 0.14617
37.87648 0.14695
37.92431 0.14807
37.97132 0.14952
38.01732 0.15130
38.06216 0.15339
38.10571 0.15578
38.14787 0.15845
38.18856 0.16140
38.22772 0.16461
38.26534 0.16805
38.30139 0.17173
38.33589 0.17562
38.36886 0.17971
38.40033 0.18398
38.43034 0.18843
38.45894 0.19304
38.48451 0.19750
38.50949 0.19227
38.53585 0.18717
38.56366 0.18221
38.59301 0.17739
38.62397 0.17274
38.65660 0.16826
38.69099 0.16397
38.72717 0.15988
38.76520 0.15602
38.80511 0.15239
38.84689 0.14901
38.89052 0.14591
38.93596 0.14310
38.98312 0.14059
39.03188 0.13841
39.08208 0.13656
39.13352 0.13507
39.18597 0.13395
39.23915 0.13320
39.29279 0.13282
39.34657 0.13284
39.40018 0.13323
39.45333 0.13401
39.50572 0.13516
39.55709 0.13667
39.60720 0.13854
39.65586 0.14074
39.70292 0.14327
39.74824 0.14610
39.79176 0.14922
39.83342 0.15261
39.87321 0.15626
39.91112 0.16014
39.94719 0.16424
39.98146 0.16854
40.01399 0.17303
40.04484 0.17769
40.05531 0.17937
40.08273 0.17413
40.11184 0.16902
40.14274 0.16406
40.17552 0.15927
40.21030 0.15467
40.24717 0.15026
40.28620 0.14607
40.32748 0.14211
40.37104 0.13841
40.41691 0.13498
40.46505 0.13186
40.51541 0.12905
40.56787 0.12658
40.62226 0.12448
40.67834 0.12276
40.73583 0.12143
40.79440 0.12051
40.85365 0.12002
40.91319 0.11994
40.97260 0.12029
41.03145 0.12106
41.08936 0.12225
41.14597 0.12383
41.20098 0.12580
41.25414 0.12815
41.30525 0.13083
41.35418 0.13385
41.40085 0.13717
41.44522 0.14078
41.48730 0.14465
41.52711 0.14876
41.56473 0.15310
41.60023 0.15764
41.62610 0.16125
41.65651 0.15598
41.68900 0.15086
41.72374 0.14592
41.76087 0.14116
41.80053 0.13661
41.84284 0.13229
41.88793 0.12823
41.93587 0.12444
41.98669 0.12095
42.04038 0.11779
42.09685 0.11500
42.15595 0.11258
42.21740 0.11058
42.28088 0.10901
42.34594 0.10788
42.41208 0.10723
42.47874 0.10704
42.54533 0.10734
42.61127 0.10810
42.67601 0.10933
42.73905 0.11101
42.79998 0.11311
42.85849 0.11561
42.91433 0.11850
42.96735 0.12173
43.01751 0.12529
43.06477 0.12915
43.10921 0.13328
43.15090 0.13765
43.18996 0.14225
43.19690 0.14312
43.23100 0.13782
43.26778 0.13270
43.30745 0.12776
43.35024 0.12305
43.39635 0.11857
43.44596 0.11437
43.49921 0.11047
43.55617 0.10691
43.61686 0.10372
43.68115 0.10093
43.74879 0.09858
43.81939 0.09670
43.89240 0.09533
43.96715 0.09447
44.04283 0.09415
44.11859 0.09437
44.19356 0.09513
44.26695 0.09641
44.33804 0.09820
44.40626 0.10046
44.47118 0.10317
44.53254 0.10630
44.59019 0.10979
44.64412 0.11363
44.69439 0.11778
44.74112 0.12221
44.76770 0.12500

