#  Created by Sandify
#  https://sandify.org
#  Version: 0.2.4
#
#  Machine type: Polar
#    Max radius (mm): 280
#    Start point: perimeter
#    End point: none
#  Content type: shape
#  Layer:
#    Shape: Circle
#    Name: polygon
#    Number of lobes: 1
#    Direction: clockwise
#    Visible: true
#    Initial width: 24
#    Initial height: 24
#    X offset: 0
#    Y offset: 0
#    Rotate (degrees): 0
#    Reverse path: true
#    Number of loops: 10
#    When transforming shape: smear
#    Scale: true
#      Scale (+/-): 100
#      Scale by: constant
#    Spin: false
#    Track: false
#    Fine tuning:
#      Connect to next layer: line
#      Draw portion of path (%): 100
#      Backtrack at end (%): 0
#      Rotate starting point (%): 0
#  Reverse export path: false
#
# File name: 'sandify2'
#

1.61988 1.00000
1.61988 0.99286
1.61988 0.98571
1.61988 0.97857
1.61988 0.97143
1.61988 0.96429
1.61988 0.95714
1.61988 0.95000
1.61988 0.94286
1.61988 0.94219
1.62746 0.94194
1.63504 0.94174
1.64263 0.94160
1.65021 0.94151
1.65780 0.94147
1.66539 0.94149
1.66897 0.94152
1.67655 0.94127
1.68414 0.94107
1.69173 0.94093
1.69932 0.94084
1.70691 0.94080
1.71451 0.94082
1.71806 0.94085
1.72565 0.94060
1.73324 0.94040
1.74083 0.94026
1.74843 0.94017
1.75603 0.94013
1.76362 0.94015
1.76715 0.94018
1.77474 0.93993
1.78234 0.93973
1.78994 0.93959
1.79754 0.93950
1.80514 0.93946
1.81275 0.93948
1.81623 0.93951
1.82383 0.93926
1.83143 0.93906
1.83904 0.93892
1.84665 0.93883
1.85426 0.93879
1.86186 0.93881
1.86532 0.93884
1.87293 0.93859
1.88053 0.93839
1.88815 0.93825
1.89576 0.93816
1.90337 0.93812
1.91099 0.93814
1.91441 0.93817
1.92202 0.93792
1.92963 0.93772
1.93725 0.93758
1.94487 0.93749
1.95249 0.93745
1.96011 0.93747
1.96349 0.93750
1.97111 0.93725
1.97873 0.93705
1.98635 0.93691
1.99397 0.93682
2.00160 0.93678
2.00922 0.93680
2.01258 0.93683
2.02020 0.93658
2.02783 0.93638
2.03545 0.93624
2.04308 0.93615
2.05071 0.93612
2.05834 0.93614
2.06167 0.93616
2.06930 0.93591
2.07693 0.93571
2.08456 0.93557
2.09219 0.93548
2.09983 0.93544
2.10746 0.93547
2.11076 0.93549
2.11839 0.93524
2.12603 0.93504
2.13366 0.93490
2.14130 0.93481
2.14895 0.93478
2.15659 0.93480
2.15985 0.93482
2.16748 0.93457
2.17512 0.93437
2.18277 0.93423
2.19041 0.93414
2.19806 0.93411
2.20571 0.93413
2.20893 0.93415
2.21658 0.93390
2.22422 0.93370
2.23187 0.93356
2.23952 0.93347
2.24717 0.93344
2.25483 0.93346
2.25802 0.93348
2.26567 0.93323
2.27332 0.93303
2.28097 0.93289
2.28863 0.93280
2.29629 0.93277
2.30395 0.93279
2.30711 0.93281
2.31476 0.93256
2.32242 0.93236
2.33008 0.93222
2.33774 0.93213
2.34540 0.93210
2.35307 0.93212
2.35619 0.93214
2.36385 0.93189
2.37152 0.93169
2.37918 0.93155
2.38685 0.93146
2.39452 0.93143
2.40219 0.93145
2.40528 0.93147
2.41295 0.93122
2.42061 0.93102
2.42829 0.93088
2.43596 0.93079
2.44363 0.93076
2.45131 0.93078
2.45437 0.93080
2.46204 0.93055
2.46971 0.93035
2.47739 0.93021
2.48507 0.93012
2.49275 0.93009
2.50043 0.93011
2.50346 0.93013
2.51113 0.92988
2.51881 0.92968
2.52649 0.92954
2.53418 0.92945
2.54186 0.92942
2.54955 0.92944
2.55254 0.92946
2.56023 0.92921
2.56791 0.92901
2.57560 0.92887
2.58329 0.92878
2.59098 0.92875
2.59867 0.92877
2.60163 0.92879
2.60932 0.92854
2.61701 0.92834
2.62470 0.92820
2.63240 0.92811
2.64009 0.92808
2.64779 0.92810
2.65072 0.92812
2.65841 0.92787
2.66611 0.92767
2.67381 0.92753
2.68151 0.92744
2.68921 0.92741
2.69691 0.92743
2.69981 0.92746
2.70750 0.92720
2.71520 0.92701
2.72291 0.92686
2.73062 0.92677
2.73832 0.92674
2.74603 0.92676
2.74890 0.92679
2.75660 0.92653
2.76431 0.92634
2.77202 0.92619
2.77973 0.92610
2.78744 0.92607
2.79515 0.92609
2.79798 0.92612
2.80569 0.92586
2.81340 0.92566
2.82112 0.92552
2.82883 0.92543
2.83655 0.92540
2.84427 0.92542
2.84707 0.92545
2.85478 0.92519
2.86250 0.92499
2.87022 0.92485
2.87795 0.92476
2.88567 0.92473
2.89339 0.92475
2.89615 0.92478
2.90387 0.92452
2.91160 0.92432
2.91932 0.92418
2.92705 0.92409
2.93478 0.92406
2.94251 0.92409
2.94524 0.92411
2.95297 0.92385
2.96070 0.92366
2.96843 0.92351
2.97616 0.92343
2.98390 0.92339
2.99163 0.92342
2.99433 0.92344
3.00206 0.92318
3.00980 0.92299
3.01753 0.92284
3.02527 0.92276
3.03302 0.92272
3.04076 0.92275
3.04342 0.92277
3.05116 0.92252
3.05890 0.92232
3.06664 0.92218
3.07439 0.92209
3.08213 0.92206
3.08988 0.92208
3.09250 0.92210
3.10025 0.92185
3.10799 0.92165
3.11574 0.92151
3.12349 0.92142
3.13125 0.92139
3.13900 0.92141
3.14159 0.92143
3.14934 0.92118
3.15709 0.92098
3.16485 0.92083
3.17260 0.92075
3.18036 0.92072
3.18812 0.92074
3.19068 0.92076
3.19843 0.92051
3.20619 0.92031
3.21395 0.92016
3.22171 0.92008
3.22948 0.92004
3.23724 0.92007
3.23977 0.92009
3.24753 0.91983
3.25529 0.91964
3.26306 0.91949
3.27083 0.91941
3.27859 0.91938
3.28636 0.91940
3.28886 0.91942
3.29662 0.91917
3.30439 0.91897
3.31216 0.91883
3.31993 0.91874
3.32771 0.91871
3.33548 0.91873
3.33794 0.91875
3.34571 0.91850
3.35349 0.91830
3.36126 0.91816
3.36904 0.91807
3.37682 0.91804
3.38461 0.91806
3.38703 0.91808
3.39481 0.91783
3.40259 0.91763
3.41037 0.91749
3.41815 0.91740
3.42594 0.91737
3.43373 0.91739
3.43612 0.91741
3.44390 0.91716
3.45169 0.91696
3.45947 0.91682
3.46727 0.91673
3.47506 0.91670
3.48285 0.91672
3.48520 0.91674
3.49299 0.91649
3.50078 0.91629
3.50858 0.91615
3.51637 0.91606
3.52417 0.91603
3.53197 0.91605
3.53429 0.91607
3.54208 0.91582
3.54988 0.91562
3.55768 0.91548
3.56548 0.91539
3.57329 0.91536
3.58109 0.91539
3.58338 0.91540
3.59118 0.91515
3.59898 0.91495
3.60679 0.91481
3.61460 0.91472
3.62240 0.91469
3.63021 0.91471
3.63246 0.91473
3.64027 0.91448
3.64808 0.91428
3.65589 0.91414
3.66370 0.91405
3.67152 0.91402
3.67933 0.91405
3.68155 0.91406
3.68936 0.91381
3.69718 0.91361
3.70500 0.91347
3.71281 0.91338
3.72064 0.91335
3.72846 0.91337
3.73064 0.91339
3.73846 0.91314
3.74628 0.91294
3.75410 0.91280
3.76193 0.91271
3.76975 0.91268
3.77758 0.91271
3.77973 0.91272
3.78755 0.91247
3.79537 0.91227
3.80320 0.91213
3.81103 0.91204
3.81887 0.91201
3.82670 0.91204
3.82881 0.91205
3.83664 0.91180
3.84447 0.91160
3.85231 0.91146
3.86014 0.91137
3.86798 0.91134
3.87582 0.91137
3.87790 0.91138
3.88574 0.91113
3.89357 0.91093
3.90141 0.91079
3.90926 0.91070
3.91710 0.91067
3.92494 0.91070
3.92699 0.91071
3.93483 0.91046
3.94267 0.91026
3.95052 0.91012
3.95837 0.91003
3.96622 0.91000
3.97407 0.91003
3.97608 0.91005
3.98392 0.90979
3.99177 0.90959
3.99962 0.90945
4.00748 0.90936
4.01533 0.90933
4.02319 0.90936
4.02517 0.90937
4.03302 0.90912
4.04087 0.90892
4.04873 0.90878
4.05659 0.90869
4.06445 0.90866
4.07231 0.90869
4.07425 0.90870
4.08211 0.90845
4.08997 0.90825
4.09783 0.90811
4.10570 0.90802
4.11357 0.90799
4.12143 0.90802
4.12334 0.90804
4.13120 0.90778
4.13907 0.90758
4.14694 0.90744
4.15481 0.90736
4.16268 0.90733
4.17055 0.90735
4.17243 0.90737
4.18030 0.90711
4.18817 0.90691
4.19604 0.90677
4.20392 0.90669
4.21180 0.90666
4.21968 0.90668
4.22152 0.90670
4.22939 0.90644
4.23727 0.90624
4.24515 0.90610
4.25303 0.90602
4.26091 0.90599
4.26880 0.90601
4.27060 0.90603
4.27848 0.90577
4.28637 0.90557
4.29425 0.90543
4.30214 0.90534
4.31003 0.90531
4.31792 0.90534
4.31969 0.90536
4.32758 0.90510
4.33547 0.90490
4.34336 0.90476
4.35125 0.90468
4.35915 0.90465
4.36704 0.90467
4.36878 0.90469
4.37667 0.90443
4.38457 0.90423
4.39246 0.90409
4.40036 0.90401
4.40827 0.90398
4.41617 0.90401
4.41787 0.90402
4.42576 0.90376
4.43366 0.90357
4.44157 0.90342
4.44948 0.90334
4.45738 0.90331
4.46529 0.90333
4.46695 0.90335
4.47485 0.90309
4.48276 0.90289
4.49067 0.90275
4.49858 0.90267
4.50650 0.90264
4.51441 0.90266
4.51604 0.90268
4.52395 0.90242
4.53186 0.90222
4.53978 0.90208
4.54770 0.90200
4.55561 0.90197
4.56353 0.90200
4.56513 0.90201
4.57304 0.90175
4.58096 0.90156
4.58888 0.90141
4.59680 0.90133
4.60473 0.90130
4.61265 0.90133
4.61421 0.90134
4.62214 0.90109
4.63006 0.90089
4.63799 0.90074
4.64592 0.90066
4.65385 0.90063
4.66178 0.90066
4.66330 0.90067
4.67123 0.90042
4.67916 0.90022
4.68709 0.90007
4.69503 0.89999
4.70297 0.89996
4.71090 0.89999
4.71239 0.90000
4.72032 0.89974
4.72826 0.89955
4.73620 0.89940
4.74414 0.89932
4.75208 0.89929
4.76002 0.89932
4.76148 0.89933
4.76942 0.89907
4.77736 0.89888
4.78530 0.89873
4.79325 0.89865
4.80120 0.89862
4.80915 0.89865
4.81057 0.89866
4.81851 0.89840
4.82646 0.89821
4.83441 0.89806
4.84236 0.89798
4.85032 0.89795
4.85827 0.89798
4.85965 0.89799
4.86760 0.89774
4.87556 0.89754
4.88352 0.89739
4.89147 0.89731
4.89943 0.89728
4.90740 0.89731
4.90874 0.89732
4.91669 0.89706
4.92465 0.89687
4.93262 0.89672
4.94058 0.89664
4.94855 0.89661
4.95651 0.89664
4.95783 0.89665
4.96579 0.89639
4.97375 0.89620
4.98172 0.89605
4.98969 0.89597
4.99767 0.89594
5.00564 0.89597
5.00691 0.89598
5.01488 0.89573
5.02285 0.89553
5.03083 0.89538
5.03881 0.89530
5.04678 0.89527
5.05476 0.89530
5.05600 0.89531
5.06397 0.89506
5.07195 0.89486
5.07993 0.89472
5.08792 0.89463
5.09590 0.89460
5.10389 0.89463
5.10509 0.89464
5.11307 0.89439
5.12105 0.89419
5.12904 0.89405
5.13703 0.89396
5.14502 0.89393
5.15301 0.89396
5.15417 0.89397
5.16216 0.89372
5.17015 0.89352
5.17814 0.89338
5.18614 0.89329
5.19413 0.89327
5.20213 0.89330
5.20326 0.89330
5.21125 0.89305
5.21925 0.89285
5.22725 0.89271
5.23525 0.89262
5.24325 0.89260
5.25125 0.89263
5.25235 0.89264
5.26035 0.89238
5.26835 0.89218
5.27636 0.89204
5.28436 0.89196
5.29237 0.89193
5.30038 0.89196
5.30144 0.89197
5.30944 0.89171
5.31745 0.89151
5.32546 0.89137
5.33347 0.89128
5.34149 0.89126
5.34950 0.89128
5.35053 0.89129
5.35854 0.89104
5.36655 0.89084
5.37457 0.89070
5.38259 0.89061
5.39061 0.89059
5.39863 0.89062
5.39961 0.89062
5.40763 0.89037
5.41565 0.89017
5.42367 0.89003
5.43170 0.88994
5.43973 0.88992
5.44775 0.88995
5.44870 0.88996
5.45672 0.88970
5.46475 0.88950
5.47278 0.88936
5.48081 0.88928
5.48884 0.88925
5.49687 0.88928
5.49779 0.88929
5.50582 0.88903
5.51385 0.88883
5.52188 0.88869
5.52992 0.88861
5.53796 0.88858
5.54600 0.88861
5.54688 0.88862
5.55491 0.88836
5.56295 0.88816
5.57099 0.88802
5.57903 0.88794
5.58708 0.88791
5.59512 0.88794
5.59596 0.88795
5.60400 0.88769
5.61205 0.88749
5.62009 0.88735
5.62814 0.88727
5.63619 0.88724
5.64425 0.88727
5.64505 0.88728
5.65310 0.88702
5.66115 0.88682
5.66920 0.88668
5.67726 0.88660
5.68531 0.88657
5.69337 0.88660
5.69414 0.88661
5.70219 0.88635
5.71025 0.88615
5.71831 0.88601
5.72637 0.88593
5.73443 0.88590
5.74249 0.88593
5.74322 0.88594
5.75128 0.88568
5.75934 0.88548
5.76741 0.88534
5.77548 0.88526
5.78355 0.88523
5.79161 0.88526
5.79231 0.88527
5.80038 0.88501
5.80845 0.88481
5.81652 0.88467
5.82459 0.88459
5.83267 0.88456
5.84074 0.88459
5.84140 0.88460
5.84947 0.88434
5.85754 0.88414
5.86562 0.88400
5.87370 0.88392
5.88178 0.88389
5.88986 0.88392
5.89049 0.88393
5.89856 0.88367
5.90664 0.88347
5.91473 0.88333
5.92281 0.88325
5.93090 0.88322
5.93899 0.88326
5.93957 0.88326
5.94766 0.88300
5.95574 0.88280
5.96383 0.88266
5.97193 0.88258
5.98002 0.88255
5.98811 0.88259
5.98866 0.88259
5.99675 0.88233
6.00484 0.88213
6.01294 0.88199
6.02104 0.88191
6.02914 0.88188
6.03724 0.88192
6.03775 0.88192
6.04584 0.88166
6.05394 0.88146
6.06205 0.88132
6.07015 0.88124
6.07826 0.88121
6.08636 0.88125
6.08683 0.88125
6.09494 0.88099
6.10304 0.88079
6.11115 0.88065
6.11926 0.88057
6.12737 0.88054
6.13548 0.88058
6.13592 0.88058
6.14403 0.88032
6.15214 0.88013
6.16026 0.87998
6.16838 0.87990
6.17649 0.87988
6.18461 0.87991
6.18501 0.87991
6.19312 0.87965
6.20124 0.87946
6.20936 0.87931
6.21749 0.87923
6.22561 0.87921
6.23373 0.87924
6.23410 0.87924
6.24222 0.87898
6.25034 0.87878
6.25847 0.87864
6.26660 0.87856
6.27473 0.87854
6.28286 0.87857
6.28319 0.87857
6.29131 0.87831
6.29944 0.87811
6.30757 0.87797
6.31571 0.87789
6.32385 0.87787
6.33198 0.87790
6.33227 0.87790
6.34040 0.87764
6.34854 0.87744
6.35668 0.87730
6.36482 0.87722
6.37296 0.87720
6.38111 0.87723
6.38136 0.87723
6.38950 0.87697
6.39764 0.87677
6.40579 0.87663
6.41393 0.87655
6.42208 0.87653
6.43023 0.87656
6.43045 0.87656
6.43859 0.87631
6.44674 0.87611
6.45489 0.87597
6.46305 0.87588
6.47120 0.87586
6.47936 0.87589
6.47953 0.87589
6.48769 0.87564
6.49584 0.87544
6.50400 0.87530
6.51216 0.87521
6.52032 0.87519
6.52848 0.87522
6.52862 0.87522
6.53678 0.87496
6.54494 0.87477
6.55310 0.87463
6.56127 0.87454
6.56944 0.87452
6.57761 0.87455
6.57771 0.87455
6.58587 0.87430
6.59404 0.87410
6.60221 0.87396
6.61038 0.87387
6.61856 0.87385
6.62673 0.87388
6.62680 0.87388
6.63497 0.87363
6.64314 0.87343
6.65132 0.87329
6.65950 0.87320
6.66768 0.87318
6.67586 0.87322
6.67588 0.87322
6.68406 0.87296
6.69224 0.87276
6.70042 0.87262
6.70861 0.87253
6.71679 0.87251
6.72497 0.87254
6.73315 0.87229
6.74134 0.87209
6.74953 0.87195
6.75772 0.87186
6.76591 0.87184
6.77406 0.87188
6.78225 0.87162
6.79044 0.87142
6.79864 0.87128
6.80684 0.87119
6.81503 0.87117
6.82315 0.87120
6.83134 0.87095
6.83954 0.87075
6.84774 0.87061
6.85595 0.87053
6.86415 0.87050
6.87223 0.87054
6.88043 0.87028
6.88864 0.87008
6.89685 0.86994
6.90506 0.86986
6.91327 0.86983
6.92132 0.86987
6.92953 0.86961
6.93774 0.86941
6.94596 0.86927
6.95417 0.86918
6.96239 0.86916
6.97041 0.86919
6.97862 0.86894
6.98684 0.86874
6.99506 0.86860
7.00328 0.86852
7.01151 0.86849
7.01950 0.86853
7.02772 0.86827
7.03594 0.86807
7.04417 0.86793
7.05240 0.86785
7.06063 0.86782
7.06858 0.86786
7.07681 0.86760
7.08504 0.86740
7.09327 0.86726
7.10151 0.86718
7.10975 0.86715
7.11767 0.86719
7.12590 0.86693
7.13414 0.86673
7.14238 0.86659
7.15062 0.86651
7.15887 0.86649
7.16676 0.86652
7.17500 0.86626
7.18324 0.86606
7.19149 0.86592
7.19974 0.86584
7.20799 0.86582
7.21585 0.86585
7.22409 0.86559
7.23234 0.86539
7.24059 0.86525
7.24885 0.86517
7.25711 0.86515
7.26493 0.86518
7.27319 0.86492
7.28144 0.86472
7.28970 0.86458
7.29796 0.86450
7.30623 0.86448
7.31402 0.86451
7.32228 0.86425
7.33054 0.86405
7.33881 0.86391
7.34707 0.86383
7.35534 0.86381
7.36311 0.86384
7.37137 0.86358
7.37964 0.86338
7.38791 0.86324
7.39619 0.86316
7.40446 0.86314
7.41219 0.86317
7.42047 0.86291
7.42874 0.86271
7.43702 0.86257
7.44530 0.86249
7.45358 0.86247
7.46128 0.86250
7.46956 0.86224
7.47784 0.86204
7.48613 0.86190
7.49441 0.86182
7.50270 0.86180
7.51037 0.86183
7.51865 0.86157
7.52694 0.86137
7.53523 0.86123
7.54353 0.86115
7.55182 0.86113
7.55946 0.86116
7.56775 0.86090
7.57604 0.86070
7.58434 0.86056
7.59264 0.86048
7.60094 0.86046
7.60854 0.86049
7.61684 0.86023
7.62514 0.86003
7.63345 0.85989
7.64175 0.85981
7.65006 0.85979
7.65763 0.85982
7.66594 0.85956
7.67424 0.85936
7.68255 0.85922
7.69087 0.85914
7.69918 0.85912
7.70672 0.85915
7.71503 0.85889
7.72334 0.85869
7.73166 0.85855
7.73998 0.85847
7.74830 0.85845
7.75581 0.85848
7.76412 0.85822
7.77244 0.85802
7.78077 0.85788
7.78909 0.85780
7.79742 0.85778
7.80490 0.85781
7.81322 0.85755
7.82155 0.85735
7.82988 0.85721
7.83821 0.85713
7.84654 0.85711
7.85398 0.85714
7.86231 0.85688
7.87064 0.85668
7.87898 0.85654
7.88732 0.85646
7.89566 0.85644
7.90307 0.85647
7.91140 0.85621
7.91974 0.85601
7.92809 0.85587
7.93643 0.85579
7.94478 0.85577
7.95215 0.85580
7.96050 0.85554
7.96884 0.85534
7.97719 0.85520
7.98555 0.85512
7.99390 0.85510
8.00124 0.85513
8.00959 0.85487
8.01795 0.85468
8.02630 0.85453
8.03466 0.85445
8.04302 0.85443
8.05033 0.85446
8.05868 0.85420
8.06704 0.85400
8.07541 0.85386
8.08377 0.85378
8.09214 0.85376
8.09942 0.85379
8.10778 0.85353
8.11614 0.85333
8.12451 0.85319
8.13289 0.85311
8.14126 0.85309
8.14851 0.85312
8.15688 0.85287
8.16525 0.85267
8.17362 0.85253
8.18200 0.85245
8.19038 0.85243
8.19759 0.85246
8.20597 0.85220
8.21435 0.85200
8.22273 0.85186
8.23111 0.85178
8.23950 0.85175
8.24668 0.85178
8.25506 0.85153
8.26345 0.85133
8.27184 0.85119
8.28023 0.85111
8.28862 0.85109
8.29577 0.85112
8.30416 0.85086
8.31255 0.85066
8.32095 0.85052
8.32934 0.85044
8.33774 0.85042
8.34485 0.85045
8.35325 0.85019
8.36165 0.84999
8.37005 0.84985
8.37845 0.84977
8.38686 0.84975
8.39394 0.84978
8.40234 0.84952
8.41075 0.84932
8.41916 0.84918
8.42757 0.84910
8.43598 0.84908
8.44303 0.84911
8.45144 0.84885
8.45985 0.84865
8.46827 0.84851
8.47668 0.84843
8.48510 0.84841
8.49212 0.84844
8.50053 0.84818
8.50895 0.84798
8.51737 0.84784
8.52580 0.84776
8.53422 0.84774
8.54121 0.84777
8.54963 0.84751
8.55805 0.84731
8.56648 0.84717
8.57491 0.84709
8.58335 0.84707
8.59029 0.84710
8.59872 0.84684
8.60715 0.84664
8.61559 0.84650
8.62403 0.84642
8.63247 0.84640
8.63938 0.84643
8.64781 0.84617
8.65625 0.84597
8.66470 0.84583
8.67314 0.84575
8.68159 0.84573
8.68846 0.84576
8.69691 0.84550
8.70535 0.84530
8.71380 0.84516
8.72225 0.84508
8.73070 0.84506
8.73756 0.84509
8.74600 0.84483
8.75446 0.84463
8.76291 0.84449
8.77137 0.84441
8.77983 0.84439
8.78664 0.84442
8.79509 0.84416
8.80355 0.84396
8.81202 0.84382
8.82048 0.84374
8.82895 0.84372
8.83573 0.84375
8.84419 0.84349
8.85266 0.84329
8.86113 0.84315
8.86960 0.84307
8.87807 0.84305
8.88482 0.84308
8.89329 0.84282
8.90176 0.84262
8.91024 0.84248
8.91871 0.84240
8.92719 0.84238
8.93390 0.84241
8.94238 0.84215
8.95086 0.84195
8.95934 0.84181
8.96782 0.84173
8.97631 0.84171
8.98299 0.84174
8.99147 0.84148
8.99996 0.84128
9.00845 0.84114
9.01694 0.84106
9.02543 0.84104
9.03208 0.84107
9.04057 0.84081
9.04906 0.84061
9.05756 0.84047
9.06606 0.84039
9.07455 0.84037
9.08117 0.84040
9.08966 0.84014
9.09816 0.83994
9.10667 0.83980
9.11517 0.83972
9.12368 0.83971
9.13025 0.83973
9.13876 0.83947
9.14726 0.83927
9.15577 0.83913
9.16429 0.83905
9.17280 0.83904
9.17934 0.83906
9.18785 0.83880
9.19636 0.83860
9.20488 0.83846
9.21340 0.83838
9.22192 0.83836
9.22843 0.83839
9.23695 0.83813
9.24547 0.83793
9.25399 0.83779
9.26251 0.83771
9.27104 0.83770
9.27752 0.83772
9.28604 0.83746
9.29457 0.83726
9.30310 0.83712
9.31163 0.83704
9.32016 0.83703
9.32660 0.83705
9.33513 0.83679
9.34366 0.83659
9.35220 0.83645
9.36074 0.83637
9.36928 0.83636
9.37569 0.83638
9.38423 0.83612
9.39277 0.83592
9.40131 0.83578
9.40986 0.83570
9.41840 0.83569
9.42478 0.83571
9.43332 0.83545
9.44187 0.83525
9.45042 0.83511
9.45897 0.83504
9.46753 0.83502
9.47387 0.83505
9.48242 0.83478
9.49097 0.83458
9.49953 0.83444
9.50809 0.83437
9.51665 0.83435
9.52295 0.83437
9.53151 0.83411
9.54007 0.83391
9.54863 0.83377
9.55720 0.83370
9.56577 0.83368
9.57204 0.83371
9.58060 0.83344
9.58917 0.83324
9.59774 0.83310
9.60631 0.83303
9.61489 0.83301
9.62113 0.83304
9.62970 0.83277
9.63827 0.83257
9.64685 0.83243
9.65543 0.83236
9.66401 0.83234
9.67022 0.83237
9.67879 0.83210
9.68738 0.83190
9.69596 0.83176
9.70455 0.83169
9.71314 0.83167
9.71930 0.83169
9.72789 0.83143
9.73648 0.83123
9.74507 0.83110
9.75366 0.83102
9.76226 0.83100
9.76839 0.83103
9.77698 0.83077
9.78558 0.83057
9.79417 0.83043
9.80278 0.83035
9.81138 0.83033
9.81748 0.83036
9.82608 0.83010
9.83468 0.82989
9.84328 0.82976
9.85189 0.82968
9.86050 0.82966
9.86656 0.82969
9.87517 0.82943
9.88378 0.82922
9.89239 0.82909
9.90101 0.82901
9.90962 0.82899
9.91565 0.82902
9.92426 0.82876
9.93288 0.82856
9.94150 0.82842
9.95012 0.82834
9.95875 0.82832
9.96474 0.82835
9.97336 0.82809
9.98198 0.82788
9.99061 0.82775
9.99924 0.82767
10.00787 0.82765
10.01383 0.82768
10.02245 0.82742
10.03108 0.82722
10.03972 0.82708
10.04835 0.82700
10.05699 0.82699
10.06291 0.82701
10.07155 0.82675
10.08018 0.82655
10.08883 0.82641
10.09747 0.82633
10.10611 0.82631
10.11200 0.82634
10.12064 0.82608
10.12929 0.82588
10.13793 0.82574
10.14659 0.82566
10.15524 0.82565
10.16109 0.82567
10.16973 0.82541
10.17839 0.82521
10.18704 0.82507
10.19570 0.82499
10.20436 0.82498
10.21018 0.82500
10.21883 0.82474
10.22749 0.82454
10.23615 0.82440
10.24481 0.82432
10.25348 0.82431
10.25926 0.82433
10.26793 0.82407
10.27659 0.82387
10.28526 0.82373
10.29393 0.82365
10.30260 0.82364
10.30835 0.82366
10.31702 0.82340
10.32569 0.82320
10.33437 0.82306
10.34305 0.82298
10.35173 0.82297
10.35744 0.82299
10.36611 0.82273
10.37479 0.82253
10.38348 0.82239
10.39216 0.82231
10.40085 0.82230
10.40653 0.82232
10.41521 0.82206
10.42389 0.82186
10.43258 0.82172
10.44128 0.82164
10.44997 0.82163
10.45561 0.82165
10.46430 0.82139
10.47299 0.82119
10.48169 0.82105
10.49039 0.82097
10.49909 0.82096
10.50470 0.82098
10.51340 0.82072
10.52210 0.82052
10.53080 0.82038
10.53951 0.82030
10.54822 0.82029
10.55379 0.82031
10.56249 0.82005
10.57120 0.81985
10.57991 0.81971
10.58862 0.81963
10.59734 0.81962
10.60287 0.81964
10.61158 0.81938
10.62030 0.81918
10.62902 0.81904
10.63774 0.81896
10.64646 0.81895
10.65196 0.81897
10.66068 0.81871
10.66940 0.81851
10.67813 0.81837
10.68686 0.81829
10.69559 0.81828
10.70105 0.81830
10.70978 0.81804
10.71851 0.81784
10.72724 0.81770
10.73597 0.81763
10.74471 0.81761
10.75014 0.81764
10.75887 0.81737
10.76761 0.81717
10.77635 0.81703
10.78509 0.81696
10.79383 0.81694
10.79922 0.81697
10.80796 0.81670
10.81671 0.81650
10.82545 0.81636
10.83420 0.81629
10.84295 0.81627
10.84831 0.81630
10.85706 0.81603
10.86581 0.81583
10.87456 0.81569
10.88332 0.81562
10.89208 0.81560
10.89740 0.81562
10.90615 0.81536
10.91491 0.81516
10.92367 0.81502
10.93243 0.81495
10.94120 0.81493
10.94649 0.81496
10.95525 0.81469
10.96401 0.81449
10.97278 0.81435
10.98155 0.81428
10.99032 0.81426
10.99557 0.81429
11.00434 0.81402
11.01311 0.81382
11.02189 0.81368
11.03067 0.81361
11.03945 0.81359
11.04466 0.81362
11.05344 0.81335
11.06221 0.81315
11.07100 0.81301
11.07978 0.81294
11.08857 0.81292
11.09375 0.81295
11.10253 0.81268
11.11132 0.81248
11.12011 0.81234
11.12890 0.81227
11.13769 0.81226
11.14284 0.81228
11.15163 0.81201
11.16042 0.81181
11.16922 0.81167
11.17802 0.81160
11.18682 0.81158
11.19192 0.81161
11.20072 0.81134
11.20952 0.81114
11.21833 0.81100
11.22713 0.81093
11.23594 0.81092
11.24101 0.81094
11.24982 0.81067
11.25862 0.81047
11.26744 0.81033
11.27625 0.81026
11.28507 0.81025
11.29010 0.81027
11.29891 0.81000
11.30772 0.80980
11.31654 0.80966
11.32537 0.80959
11.33419 0.80958
11.33919 0.80960
11.34801 0.80933
11.35683 0.80913
11.36566 0.80900
11.37449 0.80892
11.38332 0.80891
11.38827 0.80893
11.39710 0.80867
11.40593 0.80846
11.41476 0.80833
11.42360 0.80825
11.43244 0.80824
11.43736 0.80826
11.44619 0.80799
11.45503 0.80779
11.46387 0.80765
11.47272 0.80758
11.48156 0.80757
11.48645 0.80759
11.49529 0.80732
11.50414 0.80712
11.51298 0.80699
11.52184 0.80691
11.53069 0.80690
11.53554 0.80692
11.54438 0.80665
11.55324 0.80645
11.56209 0.80632
11.57095 0.80624
11.57981 0.80623
11.58462 0.80625
11.59348 0.80598
11.60234 0.80578
11.61120 0.80564
11.62007 0.80557
11.62893 0.80556
11.63371 0.80558
11.64257 0.80531
11.65144 0.80511
11.66031 0.80497
11.66918 0.80490
11.67806 0.80489
11.68280 0.80491
11.69167 0.80464
11.70054 0.80444
11.70942 0.80431
11.71830 0.80423
11.72718 0.80422
11.73189 0.80424
11.74076 0.80398
11.74964 0.80378
11.75853 0.80364
11.76742 0.80356
11.77631 0.80355
11.78097 0.80357
11.78986 0.80331
11.79875 0.80311
11.80764 0.80297
11.81653 0.80289
11.82543 0.80288
11.83006 0.80290
11.83895 0.80264
11.84785 0.80244
11.85675 0.80230
11.86565 0.80222
11.87456 0.80221
11.87914 0.80223
11.88804 0.80197
11.89695 0.80177
11.90586 0.80163
11.91477 0.80155
11.92368 0.80154
11.92824 0.80156
11.93714 0.80130
11.94605 0.80110
11.95497 0.80096
11.96389 0.80088
11.97281 0.80087
11.97732 0.80089
11.98623 0.80063
11.99515 0.80043
12.00408 0.80029
12.01300 0.80021
12.02193 0.80020
12.02641 0.80022
12.03533 0.79996
12.04426 0.79976
12.05319 0.79962
12.06212 0.79954
12.07106 0.79953
12.07550 0.79955
12.08443 0.79929
12.09336 0.79909
12.10230 0.79895
12.11124 0.79888
12.12018 0.79887
12.12458 0.79888
12.13352 0.79862
12.14246 0.79842
12.15141 0.79828
12.16035 0.79821
12.16930 0.79820
12.17367 0.79821
12.18261 0.79795
12.19156 0.79775
12.20052 0.79761
12.20947 0.79754
12.21843 0.79753
12.22276 0.79755
12.23171 0.79728
12.24067 0.79708
12.24963 0.79694
12.25859 0.79687
12.26755 0.79686
12.27184 0.79687
12.28080 0.79661
12.28977 0.79641
12.29874 0.79627
12.30771 0.79620
12.31668 0.79619
12.32094 0.79620
12.32990 0.79594
12.33887 0.79574
12.34785 0.79560
12.35683 0.79553
12.36581 0.79552
12.37002 0.79554
12.37900 0.79527
12.38798 0.79507
12.39696 0.79493
12.40594 0.79486
12.41493 0.79485
12.41911 0.79487
12.42809 0.79460
12.43708 0.79440
12.44607 0.79426
12.45506 0.79419
12.46405 0.79418
12.46819 0.79420
12.47718 0.79393
12.48618 0.79373
12.49518 0.79359
12.50418 0.79352
12.51318 0.79351
12.51728 0.79353
12.52628 0.79326
12.53528 0.79306
12.54429 0.79292
12.55330 0.79285
12.56231 0.79284
12.56637 0.79286
12.57537 0.79259
12.58438 0.79239
12.59340 0.79225
12.60241 0.79218
12.61143 0.79217
12.61546 0.79219
12.62447 0.79192
12.63349 0.79172
12.64251 0.79158
12.65153 0.79151
12.66056 0.79150
12.66455 0.79152
12.67356 0.79125
12.68259 0.79105
12.69162 0.79091
12.70065 0.79084
12.70968 0.79083
12.71363 0.79085
12.72266 0.79058
12.73169 0.79038
12.74073 0.79024
12.74977 0.79017
12.75881 0.79016
12.76272 0.79018
12.77176 0.78991
12.78080 0.78971
12.78984 0.78957
12.79889 0.78950
12.80793 0.78949
12.81181 0.78951
12.82085 0.78924
12.82990 0.78904
12.83895 0.78890
12.84800 0.78883
12.85706 0.78882
12.86090 0.78884
12.86995 0.78857
12.87900 0.78837
12.88806 0.78823
12.89712 0.78816
12.90619 0.78815
12.90998 0.78817
12.91904 0.78790
12.92810 0.78770
12.93717 0.78756
12.94624 0.78749
12.95531 0.78748
12.95907 0.78750
12.96814 0.78723
12.97721 0.78703
12.98628 0.78689
12.99536 0.78682
13.00444 0.78681
13.00816 0.78683
13.01723 0.78656
13.02631 0.78636
13.03539 0.78622
13.04448 0.78615
13.05356 0.78615
13.05724 0.78616
13.06632 0.78589
13.07541 0.78569
13.08450 0.78555
13.09359 0.78548
13.10269 0.78548
13.10633 0.78549
13.11542 0.78522
13.12451 0.78502
13.13361 0.78489
13.14271 0.78481
13.15181 0.78481
13.15542 0.78482
13.16452 0.78455
13.17362 0.78435
13.18273 0.78421
13.19183 0.78414
13.20094 0.78414
13.20451 0.78415
13.21361 0.78388
13.22272 0.78368
13.23183 0.78354
13.24095 0.78347
13.25007 0.78347
13.25359 0.78348
13.26271 0.78321
13.27182 0.78301
13.28095 0.78288
13.29007 0.78280
13.29919 0.78280
13.30268 0.78281
13.31180 0.78254
13.32093 0.78234
13.33006 0.78220
13.33919 0.78213
13.34832 0.78213
13.35177 0.78214
13.36090 0.78187
13.37003 0.78167
13.37917 0.78153
13.38831 0.78146
13.39745 0.78146
13.40086 0.78147
13.40999 0.78120
13.41913 0.78100
13.42828 0.78087
13.43743 0.78079
13.44657 0.78079
13.44994 0.78080
13.45909 0.78053
13.46824 0.78033
13.47739 0.78020
13.48654 0.78013
13.49570 0.78012
13.49903 0.78013
13.50818 0.77987
13.51734 0.77966
13.52650 0.77953
13.53566 0.77946
13.54483 0.77945
13.54812 0.77946
13.55728 0.77920
13.56644 0.77899
13.57561 0.77886
13.58478 0.77879
13.59395 0.77878
13.59720 0.77879
13.60637 0.77853
13.61554 0.77833
13.62472 0.77819
13.63390 0.77812
13.64308 0.77811
13.64629 0.77813
13.65547 0.77786
13.66465 0.77766
13.67383 0.77752
13.68302 0.77745
13.69221 0.77744
13.69538 0.77745
13.70456 0.77719
13.71375 0.77699
13.72294 0.77685
13.73214 0.77678
13.74134 0.77677
13.74447 0.77679
13.75366 0.77652
13.76285 0.77632
13.77205 0.77618
13.78126 0.77611
13.79046 0.77610
13.79356 0.77611
13.80275 0.77585
13.81196 0.77565
13.82117 0.77551
13.83038 0.77544
13.83959 0.77543
13.84264 0.77545
13.85185 0.77518
13.86106 0.77498
13.87028 0.77484
13.87950 0.77477
13.88872 0.77476
13.89173 0.77478
13.90094 0.77451
13.91016 0.77431
13.91939 0.77417
13.92861 0.77410
13.93784 0.77409
13.94082 0.77411
13.95004 0.77384
13.95927 0.77364
13.96850 0.77350
13.97773 0.77343
13.98697 0.77343
13.98991 0.77344
13.99914 0.77317
14.00837 0.77297
14.01761 0.77283
14.02686 0.77276
14.03610 0.77276
14.03899 0.77277
14.04823 0.77250
14.05748 0.77230
14.06672 0.77216
14.07598 0.77209
14.08523 0.77209
14.08808 0.77210
14.09733 0.77183
14.10658 0.77163
14.11583 0.77149
14.12509 0.77142
14.13435 0.77142
14.13717 0.77143
14.14642 0.77116
14.15568 0.77096
14.16495 0.77082
14.17421 0.77075
14.18348 0.77075
14.18625 0.77076
14.19551 0.77049
14.20478 0.77029
14.21405 0.77015
14.22333 0.77008
14.23260 0.77008
14.23534 0.77009
14.24461 0.76982
14.25389 0.76962
14.26317 0.76948
14.27245 0.76941
14.28173 0.76941
14.28443 0.76942
14.29371 0.76915
14.30299 0.76895
14.31228 0.76881
14.32157 0.76874
14.33086 0.76874
14.33352 0.76875
14.34280 0.76848
14.35209 0.76828
14.36139 0.76814
14.37069 0.76807
14.37999 0.76807
14.38260 0.76808
14.39190 0.76781
14.40120 0.76761
14.41050 0.76747
14.41981 0.76740
14.42912 0.76740
14.43169 0.76741
14.44099 0.76714
14.45030 0.76694
14.45961 0.76680
14.46893 0.76673
14.47825 0.76673
14.48078 0.76674
14.49009 0.76647
14.49941 0.76627
14.50873 0.76613
14.51805 0.76606
14.52737 0.76606
14.52987 0.76607
14.53919 0.76580
14.54851 0.76560
14.55784 0.76546
14.56717 0.76539
14.57650 0.76539
14.57895 0.76540
14.58828 0.76513
14.59761 0.76493
14.60695 0.76479
14.61629 0.76472
14.62563 0.76472
14.62804 0.76473
14.63738 0.76446
14.64672 0.76426
14.65606 0.76412
14.66541 0.76405
14.67476 0.76405
14.67713 0.76406
14.68647 0.76379
14.69582 0.76359
14.70518 0.76345
14.71453 0.76339
14.72389 0.76338
14.72621 0.76339
14.73557 0.76312
14.74492 0.76292
14.75429 0.76279
14.76365 0.76272
14.77301 0.76271
14.77530 0.76272
14.78466 0.76245
14.79403 0.76225
14.80340 0.76212
14.81277 0.76205
14.82214 0.76204
14.82439 0.76205
14.83376 0.76178
14.84313 0.76158
14.85251 0.76145
14.86189 0.76138
14.87127 0.76138
14.87348 0.76139
14.88285 0.76112
14.89223 0.76091
14.90162 0.76078
14.91101 0.76071
14.92040 0.76071
14.92257 0.76072
14.93195 0.76045
14.94134 0.76024
14.95073 0.76011
14.96013 0.76004
14.96953 0.76004
14.97165 0.76005
14.98105 0.75978
14.99045 0.75957
14.99985 0.75944
15.00925 0.75937
15.01866 0.75937
15.02074 0.75937
15.03014 0.75910
15.03955 0.75890
15.04896 0.75877
15.05837 0.75870
15.06779 0.75870
15.06983 0.75870
15.07924 0.75843
15.08865 0.75823
15.09807 0.75810
15.10749 0.75803
15.11692 0.75803
15.11891 0.75803
15.12833 0.75776
15.13775 0.75756
15.14718 0.75743
15.15661 0.75736
15.16604 0.75736
15.16800 0.75737
15.17743 0.75710
15.18686 0.75689
15.19630 0.75676
15.20573 0.75669
15.21517 0.75669
15.21709 0.75670
15.22652 0.75643
15.23596 0.75622
15.24541 0.75609
15.25486 0.75602
15.26430 0.75602
15.26618 0.75603
15.27562 0.75576
15.28507 0.75555
15.29452 0.75542
15.30398 0.75535
15.31343 0.75535
15.31526 0.75536
15.32471 0.75509
15.33417 0.75488
15.34363 0.75475
15.35310 0.75468
15.36256 0.75468
15.36435 0.75469
15.37381 0.75442
15.38328 0.75421
15.39275 0.75408
15.40222 0.75401
15.41169 0.75401
15.41344 0.75402
15.42291 0.75375
15.43238 0.75354
15.44186 0.75341
15.45134 0.75334
15.46082 0.75334
15.46252 0.75335
15.47200 0.75308
15.48148 0.75287
15.49097 0.75274
15.50046 0.75267
15.50995 0.75267
15.51161 0.75268
15.52110 0.75241
15.53059 0.75220
15.54009 0.75207
15.54958 0.75200
15.55908 0.75200
15.56070 0.75201
15.57019 0.75174
15.57969 0.75153
15.58920 0.75140
15.59870 0.75133
15.60821 0.75133
15.60979 0.75134
15.61929 0.75107
15.62880 0.75086
15.63831 0.75073
15.64783 0.75066
15.65734 0.75066
15.65888 0.75067
15.66839 0.75040
15.67790 0.75019
15.68742 0.75006
15.69695 0.74999
15.70647 0.74999
15.70796 0.75000
15.71748 0.74973
15.72701 0.74953
15.73654 0.74939
15.74607 0.74932
15.75560 0.74933
15.75705 0.74933
15.76658 0.74906
15.77611 0.74886
15.78565 0.74872
15.79519 0.74865
15.80473 0.74866
15.80614 0.74866
15.81567 0.74839
15.82522 0.74819
15.83476 0.74805
15.84431 0.74799
15.85386 0.74799
15.85523 0.74799
15.86477 0.74772
15.87432 0.74752
15.88387 0.74738
15.89343 0.74731
15.90299 0.74732
15.90431 0.74732
15.91387 0.74705
15.92343 0.74685
15.93299 0.74671
15.94256 0.74664
15.95212 0.74665
15.95340 0.74665
15.96296 0.74638
15.97253 0.74618
15.98210 0.74604
15.99168 0.74598
16.00125 0.74598
16.00249 0.74598
16.01206 0.74571
16.02163 0.74551
16.03121 0.74537
16.04080 0.74530
16.05038 0.74531
16.05158 0.74531
16.06116 0.74504
16.07074 0.74484
16.08033 0.74470
16.08992 0.74464
16.09951 0.74464
16.10066 0.74464
16.11025 0.74437
16.11984 0.74417
16.12944 0.74403
16.13904 0.74397
16.14864 0.74397
16.14975 0.74397
16.15935 0.74370
16.16895 0.74350
16.17855 0.74336
16.18816 0.74330
16.19777 0.74330
16.19883 0.74330
16.20844 0.74303
16.21805 0.74283
16.22766 0.74269
16.23728 0.74263
16.24690 0.74263
16.24792 0.74263
16.25754 0.74236
16.26716 0.74216
16.27678 0.74202
16.28641 0.74196
16.29603 0.74196
16.29701 0.74197
16.30663 0.74169
16.31626 0.74149
16.32589 0.74135
16.33553 0.74129
16.34517 0.74129
16.34610 0.74130
16.35573 0.74102
16.36537 0.74082
16.37501 0.74068
16.38465 0.74062
16.39430 0.74062
16.39519 0.74062
16.40482 0.74035
16.41447 0.74015
16.42412 0.74001
16.43377 0.73995
16.44343 0.73995
16.44427 0.73996
16.45392 0.73968
16.46358 0.73948
16.47324 0.73934
16.48290 0.73928
16.49256 0.73928
16.49336 0.73929
16.50302 0.73901
16.51268 0.73881
16.52235 0.73868
16.53202 0.73861
16.54169 0.73861
16.54245 0.73862
16.55211 0.73834
16.56179 0.73814
16.57146 0.73801
16.58114 0.73794
16.59082 0.73794
16.59153 0.73795
16.60121 0.73767
16.61089 0.73747
16.62057 0.73734
16.63026 0.73727
16.63995 0.73727
16.64062 0.73728
16.65030 0.73700
16.65999 0.73680
16.66969 0.73667
16.67938 0.73660
16.68908 0.73660
16.68971 0.73661
16.69941 0.73633
16.70910 0.73613
16.71881 0.73600
16.72851 0.73593
16.73822 0.73594
16.73880 0.73594
16.74850 0.73567
16.75821 0.73546
16.76792 0.73533
16.77763 0.73526
16.78735 0.73527
16.78789 0.73527
16.79760 0.73500
16.80731 0.73479
16.81703 0.73466
16.82675 0.73459
16.83648 0.73460
16.83697 0.73460
16.84669 0.73432
16.85641 0.73412
16.86614 0.73399
16.87587 0.73392
16.88561 0.73393
16.88606 0.73393
16.89579 0.73365
16.90552 0.73345
16.91526 0.73332
16.92500 0.73325
16.93474 0.73326
16.93515 0.73326
16.94488 0.73299
16.95463 0.73278
16.96437 0.73265
16.97412 0.73258
16.98387 0.73259
16.98423 0.73259
16.99398 0.73232
17.00373 0.73211
17.01348 0.73198
17.02324 0.73191
17.03300 0.73192
17.03332 0.73192
17.04308 0.73165
17.05284 0.73144
17.06260 0.73131
17.07237 0.73124
17.08214 0.73125
17.08241 0.73125
17.09217 0.73098
17.10194 0.73077
17.11171 0.73064
17.12149 0.73057
17.13127 0.73058
17.13149 0.73058
17.14127 0.73031
17.15104 0.73010
17.16083 0.72997
17.17061 0.72990
17.18040 0.72991
17.18059 0.72991
17.19037 0.72964
17.20015 0.72943
17.20995 0.72930
17.21974 0.72924
17.22953 0.72924
17.22967 0.72924
17.23946 0.72897
17.24926 0.72876
17.25906 0.72863
17.26886 0.72857
17.27867 0.72857
17.27876 0.72857
17.28856 0.72830
17.29836 0.72809
17.30817 0.72796
17.31799 0.72790
17.32780 0.72790
17.32785 0.72790
17.33766 0.72763
17.34747 0.72742
17.35729 0.72729
17.36711 0.72722
17.37693 0.72723
17.37694 0.72723
17.38675 0.72696
17.39658 0.72675
17.40640 0.72662
17.41623 0.72656
17.42602 0.72656
17.43584 0.72629
17.44568 0.72609
17.45551 0.72595
17.46535 0.72589
17.47511 0.72589
17.48494 0.72562
17.49478 0.72542
17.50463 0.72528
17.51448 0.72522
17.52420 0.72522
17.53404 0.72495
17.54389 0.72474
17.55374 0.72461
17.56360 0.72455
17.57329 0.72455
17.58314 0.72428
17.59300 0.72407
17.60286 0.72394
17.61273 0.72388
17.62237 0.72388
17.63223 0.72361
17.64210 0.72340
17.65197 0.72327
17.66185 0.72321
17.67146 0.72322
17.68133 0.72294
17.69120 0.72274
17.70109 0.72260
17.71097 0.72254
17.72055 0.72254
17.73043 0.72227
17.74032 0.72206
17.75021 0.72193
17.76010 0.72187
17.76963 0.72187
17.77952 0.72160
17.78942 0.72140
17.79932 0.72126
17.80922 0.72120
17.81872 0.72121
17.82862 0.72093
17.83853 0.72073
17.84843 0.72059
17.85835 0.72053
17.86781 0.72054
17.87771 0.72026
17.88763 0.72006
17.89755 0.71992
17.90747 0.71986
17.91690 0.71987
17.92681 0.71959
17.93674 0.71939
17.94666 0.71925
17.95660 0.71919
17.96598 0.71920
17.97591 0.71892
17.98584 0.71872
17.99578 0.71858
18.00572 0.71852
18.01507 0.71853
18.02501 0.71825
18.03495 0.71805
18.04489 0.71791
18.05484 0.71785
18.06416 0.71785
18.07410 0.71758
18.08405 0.71738
18.09401 0.71724
18.10397 0.71718
18.11325 0.71719
18.12320 0.71691
18.13316 0.71671
18.14313 0.71657
18.15309 0.71651
18.16233 0.71652
18.17230 0.71624
18.18227 0.71604
18.19224 0.71590
18.20222 0.71584
18.21142 0.71585
18.22139 0.71557
18.23137 0.71537
18.24136 0.71523
18.25135 0.71517
18.26051 0.71518
18.27049 0.71490
18.28048 0.71470
18.29047 0.71456
18.30047 0.71450
18.30959 0.71451
18.31958 0.71423
18.32958 0.71403
18.33958 0.71389
18.34959 0.71383
18.35868 0.71384
18.36868 0.71356
18.37869 0.71336
18.38870 0.71322
18.39872 0.71316
18.40777 0.71317
18.41778 0.71289
18.42780 0.71269
18.43782 0.71255
18.44784 0.71249
18.45686 0.71250
18.46688 0.71222
18.47690 0.71202
18.48694 0.71189
18.49697 0.71183
18.50595 0.71183
18.51598 0.71156
18.52601 0.71135
18.53605 0.71122
18.54610 0.71116
18.55503 0.71116
18.56507 0.71089
18.57512 0.71068
18.58517 0.71055
18.59522 0.71049
18.60412 0.71049
18.61417 0.71022
18.62422 0.71001
18.63428 0.70988
18.64434 0.70982
18.65321 0.70982
18.66326 0.70954
18.67333 0.70934
18.68340 0.70921
18.69347 0.70914
18.70229 0.70915
18.71236 0.70887
18.72243 0.70867
18.73251 0.70854
18.74259 0.70848
18.75138 0.70848
18.76146 0.70821
18.77154 0.70800
18.78163 0.70787
18.79172 0.70781
18.80047 0.70781
18.81055 0.70754
18.82065 0.70733
18.83074 0.70720
18.84084 0.70714
18.84956 0.70714
18.85965 0.70687
18.86975 0.70666
18.87986 0.70653
18.88997 0.70647
18.89864 0.70647
18.90875 0.70620
18.91886 0.70599
18.92898 0.70586
18.93910 0.70580
18.94773 0.70580
18.95785 0.70553
18.96797 0.70532
18.97810 0.70519
18.98822 0.70513
18.99682 0.70514
19.00694 0.70486
19.01707 0.70465
19.02721 0.70452
19.03735 0.70446
19.04591 0.70446
19.05604 0.70419
19.06618 0.70398
19.07633 0.70385
19.08648 0.70379
19.09499 0.70380
19.10513 0.70352
19.11529 0.70331
19.12544 0.70318
19.13560 0.70312
19.14408 0.70313
19.15423 0.70285
19.16439 0.70264
19.17456 0.70251
19.18473 0.70245
19.19317 0.70246
19.20333 0.70218
19.21350 0.70197
19.22367 0.70184
19.23385 0.70178
19.24225 0.70178
19.25243 0.70151
19.26261 0.70130
19.27279 0.70117
19.28298 0.70111
19.29134 0.70111
19.30152 0.70084
19.31171 0.70063
19.32191 0.70050
19.33210 0.70044
19.34043 0.70045
19.35062 0.70017
19.36082 0.69996
19.37103 0.69983
19.38123 0.69977
19.38952 0.69978
19.39972 0.69950
19.40993 0.69929
19.42014 0.69916
19.43036 0.69910
19.43861 0.69911
19.44882 0.69883
19.45904 0.69862
19.46926 0.69849
19.47949 0.69843
19.48769 0.69844
19.49791 0.69816
19.50814 0.69795
19.51837 0.69782
19.52861 0.69776
19.53678 0.69777
19.54701 0.69749
19.55725 0.69728
19.56749 0.69715
19.57774 0.69709
19.58587 0.69710
19.59611 0.69682
19.60636 0.69661
19.61661 0.69648
19.62687 0.69642
19.63495 0.69643
19.64520 0.69615
19.65546 0.69595
19.66573 0.69581
19.67599 0.69575
19.68404 0.69576
19.69430 0.69548
19.70457 0.69528
19.71484 0.69514
19.72512 0.69508
19.73313 0.69509
19.74340 0.69481
19.75368 0.69461
19.76396 0.69447
19.77424 0.69441
19.78222 0.69442
19.79250 0.69414
19.80279 0.69394
19.81308 0.69380
19.82337 0.69375
19.83130 0.69375
19.84159 0.69347
19.85189 0.69327
19.86219 0.69313
19.87250 0.69308
19.88039 0.69308
19.89069 0.69280
19.90100 0.69260
19.91131 0.69246
19.92163 0.69240
19.92948 0.69241
19.93979 0.69213
19.95011 0.69192
19.96043 0.69179
19.97075 0.69173
19.97857 0.69174
19.98889 0.69146
19.99921 0.69126
20.00955 0.69112
20.01988 0.69107
20.02765 0.69107
20.03799 0.69079
20.04832 0.69059
20.05866 0.69045
20.06901 0.69040
20.07674 0.69040
20.08708 0.69012
20.09743 0.68992
20.10778 0.68978
20.11814 0.68973
20.12583 0.68973
20.13618 0.68945
20.14654 0.68925
20.15690 0.68911
20.16726 0.68906
20.17491 0.68906
20.18528 0.68878
20.19564 0.68858
20.20602 0.68844
20.21639 0.68839
20.22400 0.68839
20.23437 0.68811
20.24475 0.68791
20.25513 0.68777
20.26552 0.68772
20.27309 0.68772
20.28347 0.68744
20.29386 0.68724
20.30425 0.68711
20.31465 0.68705
20.32218 0.68705
20.33257 0.68677
20.34297 0.68657
20.35337 0.68644
20.36378 0.68638
20.37127 0.68638
20.38167 0.68610
20.39207 0.68590
20.40249 0.68577
20.41290 0.68571
20.42035 0.68571
20.43076 0.68543
20.44118 0.68523
20.45160 0.68510
20.46203 0.68504
20.46944 0.68504
20.47986 0.68476
20.49029 0.68456
20.50072 0.68443
20.51116 0.68437
20.51853 0.68437
20.52896 0.68409
20.53940 0.68389
20.54984 0.68376
20.56029 0.68370
20.56762 0.68370
20.57806 0.68342
20.58851 0.68322
20.59896 0.68309
20.60942 0.68303
20.61670 0.68304
20.62715 0.68275
20.63761 0.68255
20.64808 0.68242
20.65854 0.68236
20.66579 0.68237
20.67625 0.68209
20.68672 0.68188
20.69719 0.68175
20.70767 0.68169
20.71488 0.68170
20.72535 0.68142
20.73583 0.68121
20.74631 0.68108
20.75680 0.68102
20.76396 0.68103
20.77445 0.68075
20.78494 0.68054
20.79543 0.68041
20.80593 0.68035
20.81305 0.68036
20.82354 0.68008
20.83404 0.67987
20.84455 0.67974
20.85506 0.67968
20.86214 0.67969
20.87264 0.67940
20.88315 0.67920
20.89367 0.67907
20.90419 0.67901
20.91123 0.67902
20.92174 0.67874
20.93226 0.67853
20.94279 0.67840
20.95332 0.67834
20.96031 0.67835
20.97084 0.67807
20.98137 0.67786
20.99190 0.67773
21.00244 0.67767
21.00940 0.67768
21.01993 0.67740
21.03048 0.67719
21.04102 0.67706
21.05157 0.67700
21.05849 0.67701
21.06903 0.67673
21.07958 0.67652
21.09014 0.67639
21.10070 0.67633
21.10757 0.67634
21.11813 0.67606
21.12869 0.67585
21.13926 0.67572
21.14983 0.67567
21.15666 0.67567
21.16723 0.67539
21.17780 0.67518
21.18838 0.67505
21.19896 0.67500
21.20575 0.67500
21.21633 0.67472
21.22691 0.67451
21.23750 0.67438
21.24809 0.67433
21.25484 0.67433
21.26542 0.67405
21.27602 0.67384
21.28662 0.67371
21.29722 0.67366
21.30393 0.67366
21.31452 0.67338
21.32513 0.67317
21.33574 0.67304
21.34635 0.67299
21.35301 0.67299
21.36362 0.67271
21.37423 0.67250
21.38486 0.67237
21.39548 0.67232
21.40210 0.67232
21.41272 0.67204
21.42334 0.67183
21.43398 0.67170
21.44461 0.67165
21.45119 0.67165
21.46182 0.67137
21.47246 0.67116
21.48310 0.67103
21.49374 0.67098
21.50027 0.67098
21.51091 0.67070
21.52156 0.67049
21.53221 0.67036
21.54287 0.67031
21.54936 0.67031
21.56001 0.67003
21.57067 0.66982
21.58133 0.66969
21.59200 0.66964
21.59845 0.66964
21.60911 0.66936
21.61978 0.66915
21.63045 0.66902
21.64113 0.66897
21.64754 0.66897
21.65821 0.66869
21.66889 0.66848
21.67957 0.66835
21.69026 0.66830
21.69662 0.66830
21.70730 0.66802
21.71799 0.66781
21.72869 0.66768
21.73939 0.66763
21.74571 0.66763
21.75640 0.66735
21.76711 0.66714
21.77781 0.66701
21.78852 0.66696
21.79480 0.66697
21.80550 0.66668
21.81621 0.66647
21.82693 0.66634
21.83765 0.66629
21.84389 0.66629
21.85460 0.66601
21.86532 0.66580
21.87605 0.66568
21.88678 0.66562
21.89297 0.66563
21.90370 0.66534
21.91443 0.66514
21.92517 0.66500
21.93591 0.66495
21.94206 0.66495
21.95280 0.66467
21.96354 0.66446
21.97429 0.66433
21.98504 0.66428
21.99115 0.66429
22.00190 0.66400
22.01265 0.66380
22.02341 0.66367
22.03417 0.66361
22.04023 0.66362
22.05099 0.66333
22.06176 0.66313
22.07253 0.66300
22.08330 0.66294
22.08932 0.66295
22.10009 0.66266
22.11087 0.66245
22.12165 0.66232
22.13243 0.66227
22.13841 0.66228
22.14919 0.66199
22.15998 0.66178
22.17077 0.66165
22.18156 0.66160
22.18750 0.66161
22.19829 0.66132
22.20908 0.66111
22.21989 0.66099
22.23069 0.66093
22.23659 0.66094
22.24739 0.66065
22.25820 0.66045
22.26901 0.66032
22.27983 0.66026
22.28567 0.66027
22.29648 0.65998
22.30730 0.65977
22.31813 0.65965
22.32896 0.65959
22.33476 0.65960
22.34558 0.65931
22.35641 0.65911
22.36725 0.65898
22.37809 0.65893
22.38385 0.65893
22.39468 0.65865
22.40552 0.65844
22.41637 0.65831
22.42722 0.65826
22.43294 0.65826
22.44378 0.65798
22.45463 0.65777
22.46549 0.65764
22.47635 0.65759
22.48202 0.65759
22.49288 0.65731
22.50374 0.65710
22.51461 0.65697
22.52548 0.65692
22.53111 0.65692
22.54198 0.65663
22.55285 0.65643
22.56374 0.65630
22.57462 0.65625
22.58020 0.65625
22.59107 0.65597
22.60196 0.65576
22.61285 0.65563
22.62375 0.65558
22.62928 0.65558
22.64017 0.65530
22.65107 0.65509
22.66197 0.65496
22.67288 0.65491
22.67837 0.65491
22.68927 0.65463
22.70018 0.65442
22.71109 0.65429
22.72201 0.65424
22.72746 0.65424
22.73837 0.65396
22.74929 0.65375
22.76022 0.65362
22.77114 0.65357
22.77655 0.65357
22.78747 0.65329
22.79840 0.65308
22.80934 0.65295
22.82028 0.65290
22.82564 0.65290
22.83657 0.65262
22.84751 0.65241
22.85846 0.65228
22.86941 0.65223
22.87472 0.65223
22.88567 0.65195
22.89662 0.65174
22.90758 0.65161
22.91854 0.65156
22.92381 0.65156
22.93476 0.65128
22.94573 0.65107
22.95670 0.65094
22.96767 0.65089
22.97289 0.65089
22.98386 0.65061
22.99484 0.65040
23.00582 0.65027
23.01680 0.65022
23.02198 0.65022
23.03296 0.64994
23.04395 0.64973
23.05494 0.64960
23.06594 0.64955
23.07107 0.64955
23.08206 0.64927
23.09306 0.64906
23.10406 0.64893
23.11507 0.64888
23.12016 0.64888
23.13116 0.64860
23.14217 0.64839
23.15319 0.64826
23.16421 0.64821
23.16925 0.64821
23.18026 0.64793
23.19128 0.64772
23.20231 0.64759
23.21334 0.64754
23.21834 0.64755
23.22936 0.64726
23.24039 0.64705
23.25143 0.64692
23.26247 0.64687
23.26742 0.64688
23.27846 0.64659
23.28950 0.64638
23.30055 0.64625
23.31160 0.64620
23.31651 0.64621
23.32756 0.64592
23.33861 0.64571
23.34967 0.64558
23.36074 0.64553
23.36559 0.64554
23.37665 0.64525
23.38772 0.64504
23.39879 0.64491
23.40987 0.64486
23.41468 0.64487
23.42575 0.64458
23.43683 0.64437
23.44792 0.64424
23.45900 0.64419
23.46377 0.64419
23.47485 0.64391
23.48594 0.64370
23.49704 0.64357
23.50814 0.64352
23.51286 0.64353
23.52395 0.64324
23.53505 0.64303
23.54616 0.64290
23.55727 0.64285
23.56194 0.64286
23.57305 0.64257
23.58416 0.64236
23.59528 0.64223
23.60640 0.64218
23.61103 0.64219
23.62215 0.64190
23.63327 0.64169
23.64440 0.64156
23.65554 0.64151
23.66012 0.64152
23.67125 0.64123
23.68238 0.64102
23.69352 0.64089
23.70467 0.64084
23.70921 0.64085
23.72035 0.64056
23.73150 0.64035
23.74265 0.64022
23.75381 0.64018
23.75829 0.64018
23.76945 0.63989
23.78061 0.63968
23.79177 0.63955
23.80294 0.63951
23.80738 0.63951
23.81855 0.63922
23.82972 0.63901
23.84090 0.63889
23.85208 0.63884
23.85647 0.63884
23.86764 0.63855
23.87883 0.63834
23.89002 0.63822
23.90121 0.63817
23.90556 0.63817
23.91674 0.63788
23.92794 0.63767
23.93914 0.63754
23.95034 0.63750
23.95465 0.63750
23.96584 0.63721
23.97705 0.63700
23.98826 0.63688
23.99948 0.63683
24.00373 0.63683
24.01494 0.63654
24.02616 0.63633
24.03738 0.63621
24.04861 0.63616
24.05282 0.63616
24.06404 0.63587
24.07527 0.63566
24.08651 0.63554
24.09775 0.63549
24.10191 0.63549
24.11314 0.63520
24.12438 0.63499
24.13563 0.63487
24.14688 0.63482
24.15099 0.63482
24.16224 0.63453
24.17349 0.63433
24.18475 0.63420
24.19602 0.63415
24.20008 0.63415
24.21134 0.63386
24.22260 0.63366
24.23387 0.63353
24.24515 0.63348
24.24917 0.63348
24.26044 0.63319
24.27172 0.63299
24.28300 0.63286
24.29429 0.63281
24.29826 0.63281
24.30954 0.63252
24.32083 0.63232
24.33212 0.63219
24.34342 0.63214
24.34734 0.63214
24.35864 0.63185
24.36994 0.63165
24.38125 0.63152
24.39256 0.63147
24.39643 0.63147
24.40773 0.63118
24.41905 0.63098
24.43037 0.63085
24.44169 0.63080
24.44552 0.63080
24.45683 0.63052
24.46816 0.63031
24.47949 0.63018
24.49083 0.63013
24.49460 0.63013
24.50593 0.62985
24.51727 0.62964
24.52861 0.62951
24.53996 0.62946
24.54370 0.62947
24.55504 0.62918
24.56639 0.62897
24.57774 0.62884
24.58910 0.62879
24.59278 0.62879
24.60413 0.62851
24.61550 0.62830
24.62686 0.62817
24.63824 0.62812
24.64187 0.62813
24.65323 0.62784
24.66461 0.62763
24.67599 0.62750
24.68737 0.62745
24.69096 0.62746
24.70233 0.62717
24.71372 0.62696
24.72511 0.62683
24.73651 0.62678
24.74004 0.62679
24.75143 0.62650
24.76283 0.62629
24.77423 0.62616
24.78564 0.62611
24.78913 0.62611
24.80053 0.62582
24.81194 0.62562
24.82336 0.62549
24.83478 0.62544
24.83822 0.62545
24.84963 0.62516
24.86105 0.62495
24.87248 0.62482
24.88391 0.62477
24.88731 0.62478
24.89873 0.62449
24.91017 0.62428
24.92161 0.62415
24.93305 0.62410
24.93639 0.62411
24.94783 0.62382
24.95928 0.62361
24.97073 0.62348
24.98219 0.62344
24.98548 0.62344
24.99693 0.62315
25.00839 0.62294
25.01985 0.62281
25.03132 0.62276
25.03456 0.62277
25.04603 0.62248
25.05750 0.62227
25.06898 0.62214
25.08046 0.62210
25.08365 0.62210
25.09513 0.62181
25.10661 0.62160
25.11810 0.62147
25.12960 0.62143
25.13274 0.62143
25.14423 0.62114
25.15573 0.62093
25.16723 0.62080
25.17873 0.62076
25.18183 0.62076
25.19333 0.62047
25.20484 0.62026
25.21636 0.62013
25.22787 0.62009
25.23091 0.62009
25.24243 0.61980
25.25395 0.61959
25.26548 0.61946
25.27701 0.61942
25.28001 0.61942
25.29153 0.61913
25.30306 0.61892
25.31461 0.61879
25.32615 0.61875
25.32909 0.61875
25.34063 0.61846
25.35217 0.61825
25.36373 0.61812
25.37528 0.61808
25.37818 0.61808
25.38973 0.61779
25.40129 0.61758
25.41285 0.61745
25.42442 0.61741
25.42727 0.61741
25.43883 0.61712
25.45040 0.61691
25.46198 0.61678
25.47356 0.61674
25.47635 0.61674
25.48793 0.61645
25.49951 0.61624
25.51110 0.61611
25.52270 0.61607
25.52544 0.61607
25.53703 0.61578
25.54863 0.61557
25.56023 0.61544
25.57183 0.61540
25.57453 0.61540
25.58613 0.61511
25.59774 0.61490
25.60935 0.61477
25.62097 0.61473
25.62361 0.61473
25.63523 0.61444
25.64685 0.61423
25.65848 0.61411
25.67011 0.61406
25.67270 0.61406
25.68433 0.61377
25.69596 0.61356
25.70760 0.61343
25.71925 0.61339
25.72179 0.61339
25.73343 0.61310
25.74507 0.61289
25.75673 0.61276
25.76838 0.61272
25.77088 0.61272
25.78253 0.61243
25.79419 0.61222
25.80586 0.61210
25.81753 0.61205
25.81996 0.61205
25.83163 0.61176
25.84330 0.61155
25.85498 0.61143
25.86666 0.61138
25.86905 0.61138
25.88072 0.61109
25.89241 0.61088
25.90410 0.61075
25.91580 0.61071
25.91814 0.61071
25.92983 0.61042
25.94153 0.61021
25.95323 0.61009
25.96494 0.61004
25.96723 0.61005
25.97893 0.60975
25.99064 0.60954
26.00236 0.60942
26.01408 0.60937
26.01632 0.60937
26.02803 0.60908
26.03976 0.60887
26.05149 0.60875
26.06322 0.60871
26.06540 0.60871
26.07713 0.60841
26.08886 0.60820
26.10061 0.60808
26.11236 0.60804
26.11449 0.60804
26.12623 0.60774
26.13798 0.60753
26.14974 0.60741
26.16150 0.60736
26.16357 0.60737
26.17533 0.60707
26.18709 0.60686
26.19886 0.60674
26.21063 0.60669
26.21266 0.60670
26.22443 0.60640
26.23620 0.60619
26.24799 0.60607
26.25977 0.60603
26.26175 0.60603
26.27353 0.60573
26.28532 0.60552
26.29711 0.60540
26.30891 0.60536
26.31084 0.60536
26.32263 0.60506
26.33443 0.60485
26.34624 0.60473
26.35805 0.60469
26.35992 0.60469
26.37173 0.60439
26.38354 0.60418
26.39537 0.60406
26.40719 0.60402
26.40902 0.60402
26.42083 0.60372
26.43266 0.60351
26.44450 0.60339
26.45634 0.60335
26.45810 0.60335
26.46994 0.60305
26.48178 0.60284
26.49362 0.60272
26.50548 0.60268
26.50719 0.60268
26.51904 0.60238
26.53089 0.60217
26.54275 0.60205
26.55462 0.60201
26.55628 0.60201
26.56813 0.60171
26.58000 0.60150
26.59188 0.60138
26.60375 0.60134
26.60536 0.60134
26.61723 0.60104
26.62911 0.60083
26.64100 0.60071
26.65289 0.60067
26.65445 0.60067
26.66633 0.60037
26.67823 0.60016
26.69013 0.60004
26.70203 0.60000
26.70354 0.60000
26.71544 0.59970
26.72734 0.59949
26.73926 0.59937
26.75117 0.59933
26.75262 0.59933
26.76453 0.59903
26.77646 0.59882
26.78838 0.59870
26.80031 0.59866
26.80171 0.59866
26.81364 0.59837
26.82557 0.59815
26.83751 0.59803
26.84946 0.59799
26.85080 0.59799
26.86274 0.59769
26.87468 0.59748
26.88664 0.59736
26.89860 0.59732
26.89989 0.59732
26.91184 0.59703
26.92380 0.59682
26.93577 0.59669
26.94774 0.59665
26.94897 0.59665
26.96094 0.59636
26.97291 0.59615
26.98489 0.59602
26.99688 0.59598
26.99806 0.59598
27.01004 0.59569
27.02203 0.59548
27.03402 0.59535
27.04602 0.59531
27.04715 0.59531
27.05914 0.59502
27.07114 0.59481
27.08315 0.59468
27.09516 0.59464
27.09624 0.59464
27.10824 0.59435
27.12026 0.59414
27.13228 0.59401
27.14430 0.59397
27.14532 0.59397
27.15734 0.59368
27.16937 0.59347
27.18141 0.59334
27.19345 0.59330
27.19441 0.59330
27.20644 0.59301
27.21849 0.59280
27.23054 0.59267
27.24259 0.59263
27.24350 0.59263
27.25555 0.59234
27.26760 0.59213
27.27966 0.59200
27.29173 0.59196
27.29259 0.59196
27.30465 0.59167
27.31672 0.59146
27.32879 0.59133
27.34087 0.59129
27.34167 0.59129
27.35374 0.59100
27.36583 0.59079
27.37792 0.59066
27.39001 0.59063
27.39076 0.59063
27.40285 0.59033
27.41494 0.59012
27.42705 0.58999
27.43915 0.58995
27.43985 0.58996
27.45195 0.58966
27.46406 0.58945
27.47618 0.58932
27.48830 0.58929
27.48894 0.58929
27.50105 0.58899
27.51317 0.58878
27.52530 0.58865
27.53744 0.58861
27.53802 0.58862
27.55015 0.58832
27.56229 0.58811
27.57444 0.58798
27.58658 0.58795
27.58711 0.58795
27.59925 0.58765
27.61140 0.58744
27.62356 0.58731
27.63573 0.58727
27.63620 0.58727
27.64835 0.58698
27.66052 0.58677
27.67269 0.58664
27.68487 0.58661
27.68529 0.58661
27.69746 0.58631
27.70964 0.58610
27.72182 0.58597
27.73401 0.58594
27.73437 0.58594
27.74656 0.58564
27.75875 0.58543
27.77095 0.58530
27.78315 0.58527
27.78346 0.58527
27.79566 0.58497
27.80787 0.58476
27.82008 0.58463
27.83230 0.58460
27.83255 0.58460
27.84476 0.58430
27.85698 0.58409
27.86921 0.58396
27.88144 0.58393
27.88163 0.58393
27.89386 0.58363
27.90609 0.58342
27.91834 0.58329
27.93058 0.58326
27.93072 0.58326
27.94296 0.58296
27.95521 0.58275
27.96747 0.58263
27.97973 0.58259
27.97981 0.58259
27.99206 0.58229
28.00432 0.58208
28.01660 0.58195
28.02887 0.58192
28.02889 0.58192
28.04116 0.58162
28.05344 0.58141
28.06572 0.58129
28.07798 0.58125
28.09027 0.58095
28.10256 0.58074
28.11486 0.58062
28.12707 0.58058
28.13937 0.58028
28.15167 0.58007
28.16399 0.57995
28.17616 0.57991
28.18847 0.57961
28.20079 0.57940
28.21311 0.57928
28.22525 0.57924
28.23757 0.57894
28.24991 0.57873
28.26225 0.57861
28.27433 0.57857
28.28667 0.57827
28.29902 0.57806
28.31138 0.57794
28.32342 0.57790
28.33577 0.57760
28.34814 0.57739
28.36051 0.57727
28.37251 0.57723
28.38488 0.57693
28.39725 0.57672
28.40964 0.57660
28.42160 0.57656
28.43398 0.57626
28.44637 0.57605
28.45877 0.57593
28.47068 0.57589
28.48308 0.57559
28.49548 0.57538
28.50790 0.57526
28.51977 0.57522
28.53218 0.57492
28.54460 0.57471
28.55703 0.57459
28.56886 0.57455
28.58128 0.57425
28.59372 0.57404
28.60616 0.57392
28.61795 0.57388
28.63039 0.57358
28.64284 0.57337
28.65529 0.57325
28.66703 0.57322
28.67949 0.57291
28.69195 0.57270
28.70442 0.57258
28.71612 0.57254
28.72859 0.57224
28.74106 0.57203
28.75355 0.57191
28.76520 0.57188
28.77769 0.57157
28.79018 0.57136
28.80268 0.57124
28.81429 0.57120
28.82679 0.57090
28.83930 0.57069
28.85181 0.57057
28.86338 0.57053
28.87589 0.57023
28.88842 0.57002
28.90095 0.56990
28.91247 0.56987
28.92499 0.56956
28.93753 0.56935
28.95008 0.56923
28.96155 0.56920
28.97409 0.56890
28.98665 0.56868
28.99921 0.56856
29.01065 0.56853
29.02320 0.56823
29.03577 0.56801
29.04834 0.56789
29.05973 0.56786
29.07230 0.56756
29.08489 0.56734
29.09747 0.56722
29.10882 0.56719
29.12140 0.56689
29.13400 0.56667
29.14661 0.56655
29.15791 0.56652
29.17051 0.56622
29.18312 0.56600
29.19574 0.56588
29.20699 0.56585
29.21961 0.56555
29.23224 0.56533
29.24487 0.56521
29.25608 0.56518
29.26871 0.56488
29.28135 0.56466
29.29400 0.56454
29.30517 0.56451
29.31782 0.56421
29.33047 0.56399
29.34314 0.56387
29.35425 0.56384
29.36691 0.56354
29.37959 0.56332
29.39227 0.56320
29.40334 0.56317
29.41602 0.56287
29.42871 0.56265
29.44140 0.56253
29.45243 0.56250
29.46512 0.56220
29.47782 0.56199
29.49053 0.56186
29.50152 0.56183
29.51422 0.56153
29.52694 0.56131
29.53967 0.56119
29.55061 0.56116
29.56333 0.56086
29.57606 0.56064
29.58880 0.56052
29.59969 0.56049
29.61243 0.56019
29.62517 0.55997
29.63793 0.55985
29.64878 0.55982
29.66153 0.55952
29.67430 0.55930
29.68707 0.55918
29.69787 0.55915
29.71064 0.55885
29.72342 0.55863
29.73620 0.55851
29.74696 0.55848
29.75974 0.55818
29.77253 0.55796
29.78533 0.55784
29.79604 0.55781
29.80884 0.55751
29.82165 0.55729
29.83446 0.55717
29.84513 0.55714
29.85794 0.55684
29.87077 0.55663
29.88360 0.55650
29.89422 0.55647
29.90704 0.55617
29.91988 0.55596
29.93273 0.55584
29.94331 0.55580
29.95615 0.55550
29.96900 0.55529
29.98187 0.55516
29.99239 0.55513
30.00525 0.55483
30.01812 0.55462
30.03100 0.55450
30.04148 0.55446
30.05436 0.55416
30.06724 0.55395
30.08014 0.55382
30.09057 0.55379
30.10346 0.55349
30.11636 0.55328
30.12927 0.55315
30.13966 0.55312
30.15256 0.55282
30.16548 0.55261
30.17840 0.55249
30.18874 0.55246
30.20167 0.55215
30.21460 0.55194
30.22754 0.55182
30.23783 0.55178
30.25077 0.55148
30.26372 0.55127
30.27668 0.55115
30.28692 0.55112
30.29987 0.55081
30.31283 0.55060
30.32581 0.55048
30.33600 0.55045
30.34897 0.55014
30.36195 0.54993
30.37494 0.54981
30.38509 0.54978
30.39808 0.54947
30.41107 0.54926
30.42408 0.54914
30.43418 0.54911
30.44718 0.54880
30.46019 0.54859
30.47321 0.54847
30.48326 0.54844
30.49628 0.54813
30.50931 0.54792
30.52234 0.54780
30.53236 0.54777
30.54539 0.54746
30.55843 0.54725
30.57148 0.54713
30.58144 0.54710
30.59449 0.54679
30.60755 0.54658
30.62062 0.54646
30.63053 0.54643
30.64359 0.54612
30.65667 0.54591
30.66975 0.54579
30.67962 0.54576
30.69270 0.54545
30.70579 0.54524
30.71889 0.54512
30.72871 0.54509
30.74180 0.54478
30.75491 0.54457
30.76803 0.54445
30.77779 0.54442
30.79090 0.54411
30.80403 0.54390
30.81716 0.54378
30.82687 0.54375
30.84000 0.54344
30.85314 0.54323
30.86629 0.54311
30.87596 0.54308
30.88911 0.54277
30.90226 0.54256
30.91543 0.54244
30.92506 0.54241
30.93822 0.54210
30.95139 0.54189
30.96457 0.54177
30.97414 0.54174
30.98732 0.54143
31.00050 0.54122
31.01370 0.54110
31.02323 0.54107
31.03642 0.54076
31.04962 0.54055
31.06284 0.54043
31.07231 0.54040
31.08552 0.54009
31.09874 0.53988
31.11197 0.53976
31.12140 0.53973
31.13463 0.53942
31.14787 0.53921
31.16112 0.53909
31.17049 0.53906
31.18373 0.53875
31.19699 0.53854
31.21025 0.53842
31.21958 0.53839
31.23283 0.53808
31.24611 0.53787
31.25939 0.53775
31.26867 0.53772
31.28194 0.53741
31.29523 0.53720
31.30852 0.53708
31.31775 0.53705
31.33105 0.53674
31.34435 0.53653
31.35766 0.53641
31.36684 0.53639
31.38015 0.53608
31.39347 0.53586
31.40680 0.53574
31.41593 0.53571
31.42925 0.53540
31.44259 0.53519
31.45594 0.53507
31.46501 0.53504
31.47836 0.53474
31.49171 0.53452
31.50507 0.53440
31.51410 0.53438
31.52746 0.53407
31.54083 0.53385
31.55421 0.53373
31.56319 0.53371
31.57656 0.53339
31.58995 0.53318
31.60335 0.53306
31.61227 0.53303
31.62567 0.53272
31.63907 0.53251
31.65248 0.53239
31.66136 0.53236
31.67477 0.53205
31.68819 0.53184
31.70162 0.53172
31.71045 0.53169
31.72388 0.53138
31.73732 0.53117
31.75076 0.53105
31.75954 0.53103
31.77298 0.53072
31.78643 0.53050
31.79990 0.53038
31.80862 0.53036
31.82208 0.53005
31.83555 0.52983
31.84904 0.52971
31.85771 0.52969
31.87119 0.52938
31.88468 0.52916
31.89818 0.52904
31.90680 0.52902
31.92029 0.52871
31.93380 0.52849
31.94732 0.52837
31.95589 0.52835
31.96940 0.52804
31.98292 0.52782
31.99646 0.52771
32.00498 0.52768
32.01850 0.52737
32.03205 0.52715
32.04559 0.52703
32.05406 0.52701
32.06761 0.52670
32.08117 0.52648
32.09473 0.52636
32.10315 0.52634
32.11672 0.52603
32.13029 0.52581
32.14388 0.52569
32.15224 0.52567
32.16581 0.52536
32.17941 0.52514
32.19301 0.52503
32.20132 0.52500
32.21492 0.52469
32.22853 0.52447
32.24215 0.52435
32.25041 0.52433
32.26403 0.52402
32.27766 0.52380
32.29129 0.52369
32.29950 0.52366
32.31313 0.52335
32.32678 0.52313
32.34043 0.52302
32.34859 0.52299
32.36224 0.52268
32.37590 0.52246
32.38957 0.52234
32.39767 0.52232
32.41134 0.52201
32.42502 0.52179
32.43871 0.52167
32.44676 0.52165
32.46045 0.52134
32.47414 0.52112
32.48785 0.52100
32.49585 0.52098
32.50955 0.52067
32.52326 0.52045
32.53699 0.52034
32.54494 0.52031
32.55866 0.52000
32.57239 0.51978
32.58613 0.51966
32.59403 0.51964
32.60776 0.51933
32.62151 0.51911
32.63527 0.51900
32.64311 0.51897
32.65687 0.51866
32.67064 0.51844
32.68441 0.51833
32.69220 0.51830
32.70597 0.51799
32.71975 0.51777
32.73355 0.51766
32.74129 0.51763
32.75508 0.51732
32.76888 0.51710
32.78269 0.51699
32.79038 0.51697
32.80418 0.51665
32.81801 0.51643
32.83184 0.51632
32.83946 0.51630
32.85328 0.51598
32.86712 0.51576
32.88097 0.51565
32.88855 0.51563
32.90239 0.51531
32.91625 0.51509
32.93012 0.51498
32.93764 0.51496
32.95150 0.51464
32.96537 0.51442
32.97926 0.51431
32.98672 0.51429
33.00060 0.51397
33.01450 0.51375
33.02840 0.51364
33.03581 0.51362
33.04971 0.51330
33.06362 0.51308
33.07754 0.51297
33.08490 0.51295
33.09882 0.51263
33.11275 0.51241
33.12669 0.51230
33.13399 0.51228
33.14792 0.51196
33.16187 0.51174
33.17583 0.51163
33.18308 0.51161
33.19703 0.51129
33.21099 0.51107
33.22497 0.51096
33.23216 0.51094
33.24613 0.51062
33.26011 0.51040
33.27411 0.51029
33.28124 0.51027
33.29523 0.50995
33.30924 0.50974
33.32325 0.50962
33.33033 0.50960
33.34434 0.50928
33.35836 0.50907
33.37239 0.50895
33.37942 0.50893
33.39344 0.50861
33.40749 0.50840
33.42153 0.50828
33.42851 0.50826
33.44255 0.50794
33.45661 0.50772
33.47068 0.50761
33.47760 0.50759
33.49166 0.50727
33.50574 0.50706
33.51982 0.50694
33.52668 0.50692
33.54076 0.50660
33.55486 0.50639
33.56896 0.50627
33.57577 0.50625
33.58987 0.50593
33.60399 0.50572
33.61811 0.50560
33.62486 0.50558
33.63898 0.50526
33.65311 0.50505
33.66726 0.50493
33.67395 0.50491
33.68808 0.50459
33.70224 0.50438
33.71640 0.50426
33.72304 0.50424
33.73719 0.50392
33.75136 0.50371
33.76554 0.50359
33.77212 0.50357
33.78630 0.50325
33.80049 0.50304
33.81469 0.50292
33.82121 0.50290
33.83540 0.50258
33.84961 0.50237
33.86383 0.50225
33.87030 0.50223
33.88451 0.50192
33.89874 0.50170
33.91297 0.50158
33.91938 0.50156
33.93361 0.50124
33.94786 0.50103
33.96211 0.50091
33.96847 0.50089
33.98272 0.50058
33.99699 0.50036
34.01126 0.50024
34.01756 0.50023
34.03183 0.49991
34.04611 0.49969
34.06041 0.49957
34.06664 0.49956
34.08093 0.49924
34.09524 0.49902
34.10955 0.49890
34.11573 0.49888
34.13004 0.49856
34.14436 0.49835
34.15870 0.49823
34.16482 0.49821
34.17915 0.49789
34.19349 0.49768
34.20784 0.49756
34.21391 0.49755
34.22825 0.49722
34.24262 0.49701
34.25699 0.49689
34.26299 0.49687
34.27736 0.49655
34.29174 0.49634
34.30613 0.49622
34.31208 0.49621
34.32647 0.49589
34.34087 0.49567
34.35528 0.49555
34.36117 0.49554
34.37557 0.49522
34.38999 0.49500
34.40442 0.49488
34.41026 0.49487
34.42468 0.49455
34.43912 0.49433
34.45357 0.49421
34.45935 0.49420
34.47379 0.49388
34.48825 0.49366
34.50272 0.49354
34.50843 0.49353
34.52289 0.49321
34.53737 0.49299
34.55186 0.49287
34.55752 0.49286
34.57200 0.49254
34.58650 0.49232
34.60101 0.49220
34.60661 0.49219
34.62111 0.49186
34.63563 0.49165
34.65016 0.49153
34.65570 0.49152
34.67022 0.49120
34.68476 0.49098
34.69931 0.49086
34.70478 0.49085
34.71932 0.49053
34.73388 0.49031
34.74845 0.49020
34.75387 0.49018
34.76843 0.48986
34.78301 0.48964
34.79760 0.48952
34.80295 0.48951
34.81753 0.48919
34.83213 0.48897
34.84674 0.48885
34.85205 0.48884
34.86665 0.48852
34.88127 0.48830
34.89589 0.48818
34.90113 0.48817
34.91576 0.48785
34.93039 0.48763
34.94504 0.48752
34.95022 0.48750
34.96486 0.48718
34.97952 0.48696
34.99418 0.48685
34.99931 0.48683
35.01397 0.48651
35.02865 0.48629
35.04333 0.48618
35.04839 0.48616
35.06307 0.48584
35.07777 0.48562
35.09248 0.48550
35.09748 0.48549
35.11219 0.48517
35.12690 0.48495
35.14163 0.48484
35.14657 0.48482
35.16129 0.48450
35.17603 0.48428
35.19078 0.48417
35.19565 0.48415
35.21039 0.48383
35.22515 0.48361
35.23992 0.48350
35.24474 0.48348
35.25951 0.48316
35.27429 0.48294
35.28908 0.48282
35.29383 0.48281
35.30861 0.48249
35.32341 0.48227
35.33823 0.48215
35.34292 0.48214
35.35772 0.48182
35.37254 0.48160
35.38738 0.48149
35.39200 0.48147
35.40683 0.48115
35.42167 0.48093
35.43652 0.48082
35.44110 0.48080
35.45594 0.48048
35.47080 0.48026
35.48568 0.48015
35.49018 0.48013
35.50505 0.47981
35.51993 0.47959
35.53482 0.47948
35.53927 0.47946
35.55416 0.47914
35.56906 0.47892
35.58398 0.47881
35.58835 0.47879
35.60326 0.47847
35.61819 0.47825
35.63312 0.47814
35.63744 0.47812
35.65237 0.47780
35.66732 0.47758
35.68227 0.47747
35.68653 0.47746
35.70148 0.47713
35.71644 0.47691
35.73142 0.47680
35.73562 0.47679
35.75059 0.47646
35.76558 0.47624
35.78058 0.47613
35.78470 0.47612
35.79969 0.47579
35.81470 0.47557
35.82972 0.47546
35.83379 0.47545
35.84881 0.47512
35.86384 0.47490
35.87888 0.47479
35.88288 0.47478
35.89791 0.47445
35.91297 0.47423
35.92803 0.47412
35.93197 0.47411
35.94702 0.47378
35.96210 0.47356
35.97718 0.47345
35.98105 0.47344
35.99613 0.47311
36.01122 0.47289
36.02633 0.47278
36.03014 0.47277
36.04524 0.47244
36.06035 0.47222
36.07548 0.47211
36.07923 0.47210
36.09435 0.47177
36.10949 0.47155
36.12463 0.47144
36.12832 0.47143
36.14346 0.47110
36.15862 0.47088
36.17378 0.47077
36.17740 0.47076
36.19257 0.47043
36.20775 0.47021
36.22294 0.47010
36.22649 0.47009
36.24168 0.46976
36.25688 0.46954
36.27209 0.46943
36.27558 0.46942
36.29078 0.46909
36.30601 0.46887
36.32124 0.46876
36.32467 0.46875
36.33990 0.46842
36.35514 0.46820
36.37040 0.46809
36.37375 0.46808
36.38900 0.46775
36.40427 0.46753
36.41955 0.46742
36.42284 0.46741
36.43811 0.46708
36.45340 0.46686
36.46870 0.46675
36.47193 0.46674
36.48722 0.46641
36.50253 0.46619
36.51785 0.46608
36.52101 0.46607
36.53633 0.46574
36.55166 0.46552
36.56701 0.46541
36.57010 0.46540
36.58544 0.46507
36.60080 0.46485
36.61616 0.46474
36.61919 0.46473
36.63455 0.46440
36.64993 0.46418
36.66532 0.46407
36.66828 0.46406
36.68366 0.46373
36.69906 0.46351
36.71447 0.46340
36.71736 0.46339
36.73277 0.46306
36.74819 0.46284
36.76362 0.46273
36.76645 0.46272
36.78187 0.46239
36.79732 0.46217
36.81277 0.46206
36.81554 0.46205
36.83099 0.46172
36.84646 0.46150
36.86193 0.46139
36.86462 0.46138
36.88009 0.46105
36.89558 0.46083
36.91108 0.46072
36.91371 0.46072
36.92921 0.46038
36.94472 0.46016
36.96024 0.46005
36.96280 0.46004
36.97832 0.45971
36.99385 0.45949
37.00940 0.45938
37.01189 0.45937
37.02742 0.45904
37.04298 0.45882
37.05855 0.45871
37.06098 0.45871
37.07654 0.45837
37.09212 0.45815
37.10771 0.45804
37.11006 0.45804
37.12565 0.45770
37.14125 0.45748
37.15686 0.45737
37.15915 0.45737
37.17476 0.45703
37.19038 0.45681
37.20602 0.45670
37.20824 0.45670
37.22387 0.45636
37.23952 0.45614
37.25517 0.45603
37.25733 0.45603
37.27298 0.45569
37.28865 0.45547
37.30433 0.45536
37.30641 0.45536
37.32209 0.45502
37.33778 0.45480
37.35349 0.45469
37.35550 0.45469
37.37120 0.45435
37.38692 0.45413
37.40265 0.45402
37.40459 0.45402
37.42031 0.45368
37.43605 0.45346
37.45180 0.45335
37.45368 0.45335
37.46942 0.45301
37.48519 0.45279
37.50096 0.45269
37.50276 0.45268
37.51853 0.45235
37.53432 0.45212
37.55011 0.45202
37.55185 0.45201
37.56764 0.45167
37.58345 0.45145
37.59927 0.45134
37.60094 0.45134
37.61675 0.45100
37.63258 0.45078
37.64843 0.45068
37.65002 0.45067
37.66586 0.45034
37.68172 0.45011
37.69759 0.45000
37.69911 0.45000
37.71497 0.44966
37.73085 0.44944
37.74675 0.44933
37.74820 0.44933
37.76408 0.44899
37.77999 0.44877
37.79590 0.44866
37.79728 0.44866
37.81319 0.44833
37.82912 0.44810
37.84506 0.44800
37.84638 0.44799
37.86231 0.44766
37.87826 0.44743
37.89423 0.44732
37.89546 0.44732
37.91142 0.44699
37.92739 0.44676
37.94338 0.44666
37.94455 0.44665
37.96053 0.44632
37.97653 0.44609
37.99254 0.44599
37.99363 0.44598
38.00964 0.44565
38.02566 0.44542
38.04170 0.44532
38.04272 0.44531
38.05875 0.44498
38.07480 0.44475
38.09086 0.44465
38.09181 0.44464
38.10786 0.44431
38.12394 0.44408
38.14002 0.44397
38.14090 0.44397
38.15697 0.44363
38.17307 0.44341
38.18918 0.44330
38.18999 0.44330
38.20609 0.44297
38.22221 0.44274
38.23834 0.44264
38.23907 0.44264
38.25520 0.44230
38.27135 0.44207
38.28750 0.44197
38.28816 0.44196
38.30431 0.44163
38.32048 0.44140
38.33667 0.44130
38.33725 0.44129
38.35342 0.44096
38.36962 0.44073
38.38583 0.44063
38.38633 0.44062
38.40253 0.44029
38.41875 0.44006
38.43498 0.43996
38.43542 0.43996
38.45165 0.43962
38.46789 0.43939
38.48415 0.43929
38.48451 0.43929
38.50076 0.43895
38.51703 0.43872
38.53331 0.43862
38.53360 0.43862
38.54987 0.43828
38.56616 0.43805
38.58247 0.43794
38.58269 0.43794
38.59898 0.43761
38.61530 0.43738
38.63163 0.43728
38.63177 0.43728
38.64810 0.43694
38.66444 0.43671
38.68080 0.43661
38.68086 0.43661
38.69721 0.43627
38.71358 0.43604
38.72994 0.43594
38.74632 0.43560
38.76271 0.43537
38.77904 0.43527
38.79544 0.43493
38.81185 0.43470
38.82812 0.43460
38.84455 0.43426
38.86099 0.43403
38.87721 0.43393
38.89366 0.43359
38.91013 0.43336
38.92630 0.43326
38.94277 0.43292
38.95927 0.43269
38.97538 0.43259
38.99188 0.43225
39.00840 0.43202
39.02447 0.43192
39.04100 0.43158
39.05755 0.43135
39.07356 0.43125
39.09011 0.43091
39.10668 0.43069
39.12265 0.43058
39.13922 0.43024
39.15582 0.43001
39.17173 0.42991
39.18833 0.42957
39.20496 0.42934
39.22082 0.42924
39.23745 0.42890
39.25410 0.42867
39.26991 0.42857
39.28656 0.42823
39.30324 0.42800
39.31900 0.42790
39.33568 0.42756
39.35238 0.42733
39.36808 0.42723
39.38479 0.42689
39.40152 0.42666
39.41717 0.42656
39.43390 0.42622
39.45066 0.42600
39.46626 0.42589
39.48302 0.42555
39.49980 0.42532
39.51535 0.42522
39.53213 0.42488
39.54894 0.42465
39.56444 0.42455
39.58125 0.42421
39.59808 0.42399
39.61352 0.42389
39.63036 0.42354
39.64722 0.42332
39.66261 0.42322
39.67947 0.42287
39.69636 0.42264
39.71169 0.42254
39.72859 0.42220
39.74550 0.42197
39.76078 0.42188
39.77770 0.42153
39.79464 0.42130
39.80987 0.42120
39.82682 0.42086
39.84378 0.42063
39.85895 0.42054
39.87592 0.42019
39.89292 0.41996
39.90805 0.41987
39.92504 0.41952
39.94207 0.41929
39.95713 0.41920
39.97416 0.41885
39.99121 0.41862
40.00622 0.41853
40.02327 0.41818
40.04035 0.41795
40.05531 0.41785
40.07239 0.41751
40.08949 0.41728
40.10439 0.41719
40.12150 0.41684
40.13864 0.41661
40.15348 0.41652
40.17062 0.41617
40.18778 0.41594
40.20256 0.41585
40.21973 0.41550
40.23692 0.41527
40.25165 0.41518
40.26885 0.41483
40.28606 0.41460
40.30074 0.41451
40.31796 0.41416
40.33521 0.41393
40.34983 0.41384
40.36708 0.41349
40.38435 0.41326
40.39892 0.41317
40.41619 0.41282
40.43349 0.41259
40.44800 0.41250
40.46531 0.41215
40.48263 0.41192
40.49709 0.41183
40.51442 0.41148
40.53178 0.41126
40.54618 0.41116
40.56354 0.41081
40.58092 0.41058
40.59526 0.41049
40.61265 0.41014
40.63006 0.40991
40.64435 0.40982
40.66177 0.40947
40.67921 0.40925
40.69344 0.40915
40.71089 0.40880
40.72835 0.40857
40.74253 0.40848
40.76000 0.40813
40.77750 0.40790
40.79162 0.40781
40.80912 0.40746
40.82664 0.40723
40.84070 0.40714
40.85823 0.40679
40.87579 0.40656
40.88980 0.40647
40.90736 0.40612
40.92494 0.40589
40.93888 0.40580
40.95647 0.40545
40.97408 0.40523
40.98797 0.40514
41.00559 0.40478
41.02323 0.40455
41.03705 0.40446
41.05470 0.40411
41.07237 0.40388
41.08614 0.40379
41.10382 0.40344
41.12152 0.40321
41.13523 0.40313
41.15293 0.40277
41.17066 0.40254
41.18431 0.40245
41.20205 0.40210
41.21981 0.40187
41.23341 0.40178
41.25117 0.40143
41.26896 0.40120
41.28249 0.40112
41.30029 0.40076
41.31811 0.40053
41.33158 0.40044
41.34940 0.40009
41.36725 0.39986
41.38066 0.39978
41.39852 0.39942
41.41640 0.39919
41.42975 0.39911
41.44764 0.39875
41.46554 0.39852
41.47884 0.39844
41.49675 0.39808
41.51469 0.39785
41.52793 0.39777
41.54587 0.39741
41.56384 0.39719
41.57701 0.39710
41.59499 0.39674
41.61299 0.39651
41.62610 0.39643
41.64411 0.39607
41.66214 0.39584
41.67519 0.39576
41.69323 0.39540
41.71129 0.39517
41.72427 0.39509
41.74234 0.39473
41.76043 0.39450
41.77336 0.39442
41.79146 0.39406
41.80958 0.39384
41.82245 0.39375
41.84058 0.39339
41.85873 0.39316
41.87154 0.39308
41.88970 0.39272
41.90789 0.39249
41.92062 0.39241
41.93881 0.39205
41.95703 0.39182
41.96972 0.39174
41.98794 0.39138
42.00618 0.39115
42.01880 0.39107
42.03705 0.39071
42.05533 0.39048
42.06789 0.39040
42.08617 0.39004
42.10448 0.38981
42.11698 0.38973
42.13529 0.38937
42.15363 0.38914
42.16606 0.38906
42.18441 0.38870
42.20278 0.38847
42.21515 0.38839
42.23353 0.38803
42.25193 0.38780
42.26424 0.38772
42.28265 0.38736
42.30109 0.38713
42.31332 0.38705
42.33176 0.38669
42.35023 0.38646
42.36241 0.38638
42.38088 0.38602
42.39938 0.38579
42.41150 0.38571
42.43000 0.38535
42.44854 0.38512
42.46059 0.38505
42.47912 0.38468
42.49769 0.38445
42.50967 0.38438
42.52824 0.38401
42.54684 0.38378
42.55876 0.38371
42.57736 0.38334
42.59599 0.38311
42.60785 0.38303
42.62648 0.38267
42.64514 0.38244
42.65694 0.38237
42.67560 0.38200
42.69430 0.38177
42.70602 0.38170
42.72472 0.38133
42.74345 0.38110
42.75511 0.38103
42.77384 0.38066
42.79260 0.38043
42.80420 0.38036
42.82297 0.37999
42.84176 0.37976
42.85328 0.37969
42.87208 0.37932
42.89091 0.37909
42.90237 0.37902
42.92120 0.37865
42.94006 0.37842
42.95146 0.37835
42.97033 0.37798
42.98922 0.37775
43.00055 0.37768
43.01945 0.37731
43.03838 0.37708
43.04964 0.37701
43.06857 0.37664
43.08753 0.37641
43.09872 0.37634
43.11769 0.37597
43.13668 0.37574
43.14781 0.37567
43.16681 0.37530
43.18584 0.37507
43.19690 0.37500
43.21593 0.37463
43.23499 0.37440
43.24599 0.37433
43.26505 0.37396
43.28415 0.37373
43.29508 0.37366
43.31418 0.37329
43.33331 0.37306
43.34416 0.37299
43.36330 0.37262
43.38246 0.37239
43.39325 0.37232
43.41242 0.37195
43.43162 0.37172
43.44233 0.37165
43.46154 0.37128
43.48077 0.37105
43.49143 0.37098
43.51067 0.37061
43.52994 0.37038
43.54051 0.37031
43.55978 0.36994
43.57909 0.36971
43.58960 0.36964
43.60890 0.36927
43.62824 0.36904
43.63868 0.36897
43.65803 0.36860
43.67740 0.36837
43.68777 0.36830
43.70715 0.36793
43.72656 0.36770
43.73686 0.36764
43.75627 0.36726
43.77572 0.36703
43.78594 0.36697
43.80539 0.36659
43.82487 0.36636
43.83503 0.36629
43.85452 0.36592
43.87404 0.36569
43.88412 0.36563
43.90364 0.36525
43.92319 0.36502
43.93321 0.36495
43.95277 0.36458
43.97235 0.36435
43.98230 0.36429
44.00189 0.36391
44.02151 0.36368
44.03139 0.36362
44.05101 0.36324
44.07068 0.36301
44.08047 0.36295
44.10014 0.36257
44.11983 0.36234
44.12956 0.36228
44.14926 0.36190
44.16899 0.36167
44.17865 0.36161
44.19838 0.36123
44.21815 0.36100
44.22773 0.36094
44.24750 0.36056
44.26731 0.36033
44.27682 0.36027
44.29663 0.35989
44.31647 0.35966
44.32591 0.35960
44.34576 0.35922
44.36564 0.35899
44.37500 0.35893
44.39488 0.35855
44.41480 0.35832
44.42408 0.35826
44.44401 0.35788
44.46396 0.35765
44.47318 0.35759
44.49313 0.35721
44.51313 0.35698
44.52226 0.35692
44.54225 0.35654
44.56228 0.35631
44.57135 0.35625
44.59138 0.35587
44.61145 0.35564
44.62043 0.35558
44.64050 0.35520
44.66061 0.35497
44.66952 0.35491
44.68963 0.35453
44.70977 0.35430
44.71861 0.35424
44.73875 0.35386
44.75894 0.35363
44.76770 0.35357
44.78788 0.35319
44.80810 0.35296
44.81678 0.35290
44.83701 0.35252
44.85727 0.35229
44.86587 0.35223
44.88613 0.35185
44.90643 0.35162
44.91496 0.35156
44.93526 0.35118
44.95560 0.35095
44.96404 0.35089
44.98438 0.35051
45.00476 0.35028
45.01313 0.35022
45.03351 0.34984
45.05393 0.34961
45.06222 0.34955
45.08264 0.34917
45.10309 0.34894
45.11130 0.34888
45.13176 0.34850
45.15225 0.34827
45.16039 0.34821
45.18089 0.34783
45.20142 0.34760
45.20948 0.34755
45.23001 0.34716
45.25058 0.34693
45.25857 0.34688
45.27914 0.34649
45.29975 0.34626
45.30765 0.34620
45.32827 0.34582
45.34892 0.34559
45.35674 0.34554
45.37740 0.34515
45.39809 0.34492
45.40583 0.34486
45.42652 0.34448
45.44725 0.34425
45.45492 0.34420
45.47566 0.34381
45.49643 0.34358
45.50400 0.34353
45.52478 0.34314
45.54559 0.34291
45.55309 0.34286
45.57391 0.34247
45.59476 0.34224
45.60218 0.34219
45.62303 0.34180
45.64393 0.34157
45.65127 0.34152
45.67217 0.34113
45.69310 0.34090
45.70036 0.34085
45.72130 0.34046
45.74227 0.34023
45.74944 0.34018
45.77042 0.33979
45.79144 0.33956
45.79853 0.33951
45.81955 0.33912
45.84061 0.33889
45.84762 0.33884
45.86868 0.33845
45.88978 0.33821
45.89670 0.33817
45.91781 0.33778
45.93895 0.33755
45.94580 0.33750
45.96694 0.33711
45.98812 0.33687
45.99488 0.33683
46.01607 0.33644
46.03730 0.33620
46.04396 0.33616
46.06519 0.33577
46.08646 0.33553
46.09306 0.33549
46.11433 0.33510
46.13564 0.33486
46.14215 0.33482
46.16346 0.33443
46.18482 0.33419
46.19123 0.33415
46.21259 0.33376
46.23398 0.33352
46.24031 0.33348
46.26171 0.33309
46.28315 0.33285
46.28941 0.33281
46.31085 0.33242
46.33233 0.33218
46.33849 0.33214
46.35998 0.33175
46.38150 0.33151
46.38758 0.33147
46.40911 0.33108
46.43068 0.33084
46.43666 0.33080
46.45824 0.33041
46.47985 0.33017
46.48575 0.33013
46.50737 0.32974
46.52903 0.32950
46.53484 0.32946
46.55650 0.32907
46.57821 0.32883
46.58393 0.32880
46.60563 0.32840
46.62738 0.32816
46.63301 0.32813
46.65476 0.32773
46.67655 0.32749
46.68211 0.32746
46.70390 0.32706
46.72574 0.32682
46.73119 0.32679
46.75302 0.32639
46.77490 0.32615
46.78028 0.32612
46.80216 0.32572
46.82409 0.32548
46.82937 0.32545
46.85129 0.32505
46.87327 0.32481
46.87845 0.32478
46.90043 0.32438
46.92244 0.32414
46.92754 0.32411
46.94956 0.32371
46.97162 0.32347
46.97663 0.32344
46.99869 0.32304
47.02080 0.32280
47.02572 0.32277
47.04783 0.32237
47.06998 0.32213
47.07481 0.32210
47.09696 0.32170
47.11916 0.32146
47.12389 0.32143
47.14609 0.32103
47.16834 0.32079
47.17298 0.32076
47.19523 0.32036
47.21752 0.32012
47.22207 0.32009
47.24436 0.31969
47.26670 0.31945
47.27115 0.31942
47.29349 0.31902
47.31588 0.31878
47.32024 0.31875
47.34263 0.31835
47.36506 0.31811
47.36932 0.31808
47.39176 0.31768
47.41424 0.31744
47.41841 0.31741
47.44090 0.31701
47.46342 0.31677
47.46750 0.31674
47.49003 0.31634
47.51261 0.31610
47.51659 0.31607
47.53916 0.31567
47.56179 0.31543
47.56567 0.31540
47.58829 0.31500
47.61097 0.31476
47.61477 0.31473
47.63744 0.31433
47.66016 0.31409
47.66385 0.31406
47.68657 0.31366
47.70934 0.31341
47.71294 0.31339
47.73571 0.31299
47.75853 0.31275
47.76203 0.31272
47.78484 0.31232
47.80771 0.31208
47.81111 0.31205
47.83398 0.31165
47.85689 0.31141
47.86020 0.31139
47.88312 0.31098
47.90608 0.31073
47.90929 0.31071
47.93225 0.31031
47.95527 0.31007
47.95837 0.31005
47.98139 0.30964
48.00445 0.30939
48.00747 0.30937
48.03053 0.30897
48.05365 0.30872
48.05655 0.30871
48.07966 0.30830
48.10283 0.30805
48.10564 0.30804
48.12880 0.30763
48.15202 0.30738
48.15472 0.30737
48.17794 0.30696
48.20121 0.30671
48.20381 0.30670
48.22708 0.30629
48.25040 0.30604
48.25290 0.30603
48.27622 0.30562
48.29959 0.30537
48.30199 0.30536
48.32536 0.30495
48.34878 0.30470
48.35107 0.30469
48.37449 0.30428
48.39796 0.30403
48.40017 0.30402
48.42364 0.30361
48.44716 0.30336
48.44925 0.30335
48.47277 0.30294
48.49635 0.30269
48.49834 0.30268
48.52191 0.30227
48.54554 0.30202
48.54742 0.30201
48.57105 0.30160
48.59473 0.30135
48.59651 0.30134
48.62019 0.30093
48.64393 0.30068
48.64560 0.30067
48.66933 0.30025
48.69312 0.30001
48.69469 0.30000
48.71847 0.29959
48.74231 0.29934
48.74377 0.29933
48.76761 0.29892
48.79150 0.29867
48.79287 0.29866
48.81676 0.29824
48.84070 0.29800
48.84195 0.29799
48.86590 0.29757
48.88990 0.29733
48.89103 0.29732
48.91503 0.29690
48.93909 0.29666
48.94013 0.29665
48.96418 0.29623
48.98829 0.29599
48.98921 0.29598
49.01332 0.29556
49.03748 0.29532
49.03830 0.29531
49.06247 0.29489
49.08668 0.29465
49.08738 0.29464
49.11160 0.29422
49.13587 0.29398
49.13647 0.29397
49.16074 0.29355
49.18507 0.29331
49.18555 0.29330
49.20988 0.29288
49.23427 0.29264
49.23465 0.29263
49.25903 0.29221
49.28347 0.29197
49.28373 0.29197
49.30817 0.29154
49.33267 0.29130
49.33282 0.29130
49.35732 0.29087
49.38187 0.29063
49.38191 0.29063
49.40646 0.29020
49.43099 0.28995
49.45560 0.28953
49.48008 0.28929
49.50475 0.28886
49.52917 0.28861
49.55390 0.28819
49.57826 0.28795
49.60304 0.28752
49.62734 0.28728
49.65218 0.28685
49.67643 0.28661
49.70132 0.28618
49.72553 0.28594
49.75048 0.28551
49.77460 0.28527
49.79962 0.28484
49.82370 0.28460
49.84877 0.28417
49.87279 0.28393
49.89792 0.28350
49.92186 0.28326
49.94706 0.28283
49.97096 0.28259
49.99621 0.28216
50.02005 0.28192
50.04536 0.28149
50.06914 0.28125
50.09451 0.28082
50.11821 0.28058
50.14365 0.28015
50.16731 0.27991
50.19280 0.27948
50.21640 0.27924
50.24195 0.27881
50.26548 0.27857
50.29110 0.27814
50.31457 0.27790
50.34024 0.27747
50.36366 0.27723
50.38940 0.27680
50.41274 0.27656
50.43854 0.27613
50.46183 0.27589
50.48770 0.27546
50.51092 0.27522
50.53685 0.27479
50.56001 0.27455
50.58600 0.27412
50.60909 0.27388
50.63514 0.27345
50.65818 0.27321
50.68429 0.27278
50.70727 0.27255
50.73345 0.27211
50.75636 0.27187
50.78260 0.27144
50.80545 0.27121
50.83175 0.27077
50.85452 0.27054
50.88090 0.27009
50.90363 0.26987
50.93007 0.26942
50.95270 0.26920
50.97920 0.26875
51.00180 0.26853
51.02837 0.26808
51.05088 0.26786
51.07752 0.26741
51.09996 0.26719
51.12667 0.26674
51.14905 0.26652
51.17582 0.26607
51.19815 0.26585
51.22499 0.26540
51.24723 0.26518
51.27414 0.26473
51.29632 0.26451
51.32329 0.26406
51.34541 0.26384
51.37245 0.26339
51.39450 0.26317
51.42161 0.26272
51.44358 0.26250
51.47076 0.26205
51.49267 0.26183
51.51992 0.26138
51.54175 0.26116
51.56907 0.26071
51.59085 0.26049
51.61824 0.26004
51.63993 0.25982
51.66739 0.25937
51.68902 0.25915
51.71655 0.25870
51.73810 0.25848
51.76571 0.25803
51.78719 0.25781
51.81487 0.25736
51.83628 0.25714
51.86403 0.25669
51.88537 0.25647
51.91319 0.25602
51.93445 0.25580
51.96234 0.25535
51.98354 0.25513
52.01151 0.25468
52.03263 0.25446
52.06066 0.25401
52.08172 0.25380
52.10983 0.25334
52.13080 0.25312
52.15899 0.25266
52.17989 0.25245
52.20816 0.25200
52.22897 0.25179
52.25731 0.25133
52.27806 0.25112
52.30647 0.25066
52.32715 0.25045
52.35564 0.24998
52.37624 0.24978
52.40481 0.24931
52.42533 0.24911
52.45397 0.24864
52.47441 0.24844
52.50313 0.24797
52.52350 0.24777
52.55229 0.24730
52.57258 0.24710
52.60145 0.24663
52.62168 0.24643
52.65063 0.24596
52.67076 0.24576
52.69979 0.24529
52.71986 0.24509
52.74897 0.24462
52.76895 0.24442
52.79813 0.24395
52.81802 0.24375
52.84729 0.24328
52.86711 0.24308
52.89646 0.24261
52.91620 0.24241
52.94563 0.24194
52.96529 0.24174
52.99480 0.24127
53.01438 0.24107
53.04397 0.24060
53.06346 0.24040
53.09314 0.23993
53.11256 0.23973
53.14232 0.23926
53.16164 0.23906
53.19149 0.23858
53.21073 0.23839
53.24066 0.23792
53.25981 0.23772
53.28982 0.23724
53.30890 0.23705
53.33899 0.23657
53.35798 0.23638
53.38816 0.23590
53.40708 0.23571
53.43734 0.23523
53.45616 0.23504
53.48651 0.23456
53.50524 0.23437
53.53568 0.23389
53.55434 0.23370
53.58487 0.23322
53.60343 0.23304
53.63404 0.23255
53.65251 0.23237
53.68321 0.23188
53.70159 0.23170
53.73238 0.23121
53.75069 0.23103
53.78157 0.23054
53.79977 0.23036
53.83074 0.22987
53.84886 0.22969
53.87992 0.22920
53.89795 0.22902
53.92910 0.22853
53.94703 0.22835
53.97827 0.22786
53.99613 0.22768
54.02746 0.22719
54.04521 0.22701
54.07663 0.22652
54.09430 0.22634
54.12582 0.22585
54.14338 0.22567
54.17499 0.22518
54.19247 0.22500
54.22418 0.22451
54.24156 0.22433
54.27337 0.22383
54.29065 0.22366
54.32254 0.22316
54.33973 0.22299
54.37172 0.22249
54.38883 0.22232
54.42091 0.22182
54.43791 0.22165
54.47009 0.22115
54.48699 0.22098
54.51928 0.22048
54.53608 0.22031
54.56846 0.21981
54.58518 0.21964
54.61765 0.21914
54.63425 0.21897
54.66683 0.21847
54.68334 0.21830
54.71602 0.21780
54.73243 0.21763
54.76521 0.21713
54.78152 0.21697
54.81440 0.21646
54.83062 0.21629
54.86360 0.21579
54.87969 0.21562
54.91278 0.21512
54.92879 0.21496
54.96197 0.21445
54.97787 0.21429
55.01116 0.21377
55.02696 0.21361
55.06036 0.21310
55.07604 0.21295
55.10954 0.21243
55.12513 0.21228
55.15873 0.21176
55.17422 0.21161
55.20793 0.21109
55.22331 0.21094
55.25713 0.21042
55.27240 0.21027
55.30633 0.20975
55.32148 0.20960
55.35551 0.20908
55.37057 0.20893
55.40471 0.20841
55.41966 0.20826
55.45391 0.20774
55.46874 0.20759
55.50311 0.20707
55.51783 0.20692
55.55230 0.20640
55.56692 0.20625
55.60151 0.20573
55.61600 0.20558
55.65070 0.20505
55.66510 0.20491
55.69991 0.20438
55.71419 0.20424
55.74911 0.20371
55.76327 0.20357
55.79831 0.20304
55.81235 0.20290
55.84751 0.20237
55.86144 0.20223
55.89671 0.20170
55.91053 0.20156
55.94592 0.20103
55.95961 0.20089
55.99512 0.20036
56.00870 0.20022
56.04433 0.19969
56.05780 0.19955
56.09354 0.19902
56.10689 0.19888
56.14275 0.19835
56.15597 0.19821
56.19195 0.19768
56.20506 0.19754
56.24117 0.19700
56.25414 0.19687
56.29037 0.19633
56.30323 0.19621
56.33958 0.19566
56.35232 0.19554
56.38880 0.19499
56.40141 0.19487
56.43801 0.19432
56.45049 0.19420
56.48721 0.19365
56.49958 0.19353
56.53643 0.19298
56.54867 0.19286
56.58565 0.19231
56.59775 0.19219
56.63486 0.19164
56.64684 0.19152
56.68408 0.19097
56.69593 0.19085
56.73330 0.19030
56.74502 0.19018
56.78253 0.18962
56.79410 0.18951
56.83174 0.18895
56.84320 0.18884
56.88097 0.18828
56.89228 0.18817
56.93018 0.18761
56.94137 0.18750
56.97940 0.18694
56.99045 0.18683
57.02862 0.18627
57.03955 0.18616
57.07786 0.18560
57.08863 0.18549
57.12708 0.18493
57.13772 0.18482
57.17630 0.18426
57.18681 0.18415
57.22554 0.18359
57.23590 0.18348
57.27477 0.18291
57.28498 0.18281
57.32399 0.18224
57.33407 0.18214
57.37322 0.18157
57.38315 0.18148
57.42245 0.18090
57.43225 0.18080
57.47169 0.18023
57.48132 0.18014
57.52091 0.17956
57.53042 0.17946
57.57016 0.17889
57.57951 0.17879
57.61939 0.17822
57.62859 0.17813
57.66863 0.17755
57.67768 0.17746
57.71787 0.17688
57.72676 0.17679
57.76710 0.17620
57.77585 0.17612
57.81634 0.17553
57.82495 0.17545
57.86559 0.17486
57.87402 0.17478
57.91483 0.17419
57.92311 0.17411
57.96407 0.17352
57.97219 0.17344
58.01331 0.17285
58.02128 0.17277
58.06256 0.17218
58.07039 0.17210
58.11182 0.17151
58.11946 0.17143
58.16106 0.17083
58.16855 0.17076
58.21031 0.17016
58.21764 0.17009
58.25956 0.16949
58.26674 0.16942
58.30883 0.16882
58.31581 0.16875
58.35807 0.16815
58.36490 0.16808
58.40732 0.16748
58.41398 0.16741
58.45658 0.16681
58.46309 0.16674
58.50585 0.16613
58.51217 0.16607
58.55511 0.16546
58.56125 0.16540
58.60436 0.16479
58.61033 0.16473
58.65362 0.16412
58.65943 0.16406
58.70289 0.16345
58.70850 0.16339
58.75214 0.16278
58.75761 0.16272
58.80143 0.16211
58.80670 0.16205
58.85070 0.16144
58.85577 0.16138
58.89995 0.16076
58.90486 0.16072
58.94923 0.16009
58.95396 0.16004
58.99851 0.15942
59.00304 0.15938
59.04778 0.15875
59.05214 0.15871
59.09706 0.15808
59.10122 0.15804
59.14633 0.15741
59.15030 0.15737
59.19560 0.15673
59.19937 0.15670
59.24487 0.15606
59.24847 0.15603
59.29417 0.15539
59.29756 0.15536
59.34345 0.15472
59.34664 0.15469
59.39273 0.15405
59.39573 0.15402
59.44202 0.15338
59.44482 0.15335
59.49132 0.15271
59.49392 0.15268
59.54061 0.15203
59.54300 0.15201
59.58990 0.15136
59.59210 0.15134
59.63920 0.15069
59.64117 0.15067
59.68849 0.15002
59.69026 0.15000
59.73779 0.14935
59.73936 0.14933
59.78710 0.14868
59.78844 0.14866
59.83639 0.14800
59.83752 0.14799
59.88569 0.14733
59.88660 0.14732
59.93499 0.14666
59.93569 0.14665
59.98430 0.14599
59.98478 0.14598
60.03361 0.14531
60.03387 0.14531
60.08293 0.14464
60.08297 0.14464
60.13205 0.14397
60.18114 0.14330
60.23022 0.14264
60.27931 0.14196
60.32839 0.14129
60.37748 0.14062
60.42658 0.13996
60.47566 0.13928
60.52474 0.13862
60.57385 0.13795
60.62292 0.13728
60.67200 0.13661
60.72109 0.13594
60.77019 0.13527
60.81928 0.13460
60.86834 0.13393
60.91745 0.13326
60.96652 0.13259
61.01563 0.13192
61.06470 0.13125
61.11379 0.13058
61.16289 0.12991
61.21196 0.12924
61.26106 0.12857
61.31014 0.12790
61.35924 0.12723
61.40833 0.12656
61.45741 0.12589
61.50648 0.12522
61.55559 0.12455
61.60467 0.12388
61.65377 0.12322
61.70283 0.12254
61.75191 0.12188
61.80101 0.12120
61.85009 0.12053
61.89918 0.11987
61.94829 0.11920
61.99737 0.11853
62.04645 0.11786
62.09552 0.11719
62.14462 0.11652
62.19372 0.11585
62.24281 0.11518
62.29190 0.11451
62.34097 0.11384
62.39007 0.11317
62.43914 0.11250
62.48824 0.11183
62.53733 0.11116
62.58642 0.11049
62.63550 0.10982
62.68461 0.10915
62.73369 0.10848
62.78277 0.10781
62.83185 0.10714
62.88095 0.10647
62.93004 0.10580
62.97910 0.10513
63.02819 0.10446
63.07730 0.10380
63.12637 0.10313
63.17547 0.10246
63.22453 0.10179
63.27364 0.10112
63.32273 0.10045
63.37182 0.09978
63.42091 0.09911
63.47000 0.09844
63.51909 0.09777
63.56815 0.09710
63.61725 0.09643
63.66635 0.09576
63.71541 0.09509
63.76451 0.09442
63.81359 0.09375
63.86269 0.09308
63.91179 0.09241
63.96085 0.09174
64.00997 0.09107
64.05902 0.09040
64.10814 0.08973
64.15722 0.08906
64.20632 0.08839
64.25539 0.08772
64.30448 0.08705
64.35355 0.08638
64.40265 0.08571

